AF3,AF4,F5,F3,F1,Fz,F2,F4,F6,FC5,FC3,FC1,FCz,FC2,FC4,FC6,CFC7,CFC5,CFC3,CFC1,CFC2,CFC4,CFC6,CFC8,T7,C5,C3,C1,Cz,C2,C4,C6,T8,CCP7,CCP5,CCP3,CCP1,CCP2,CCP4,CCP6,CCP8,CP5,CP3,CP1,CPz,CP2,CP4,CP6,P5,P3,P1,Pz,P2,P4,P6,PO1,PO2,O1,O2
48.160821960673466,0.3930503295583545,104.8256149031242,49.86968891110254,13.657644734728015,-5.171352825580147,2.8583383975755177,6.760994724977881,13.832289893281331,121.80577217531771,46.74226077180961,-29.602990599129704,-42.542711800462214,-31.73860915091627,9.791929058394082,33.356815187351536,149.04324390738608,71.87434194552945,-16.685861101277453,-48.746572786875056,-51.81139507426318,-16.900992729009108,11.983560452137693,60.357168400080454,162.6839096434299,115.98815275977798,35.31811482941605,-42.64517684599146,-58.71005491048145,-56.44234613158294,-8.205992590445819,44.16049657227698,91.88780707522525,168.16694926169535,73.92927910311673,-6.034319246776519,-50.8093810424938,-54.48376662257161,-33.76828347350797,17.93620213432436,74.12050266878492,122.38851649477546,18.79357132458447,-28.46638829336392,-56.86576622161118,-46.53397019673471,-19.82669556315563,49.12956808471367,100.39528138037929,39.72218545417594,-11.043197312544391,-20.871374228752575,-43.247741245808356,7.417183310144454,51.13866283620787,43.10085596086362,32.82424403440157,82.23983986966226,90.35727093309859
43.55043089954875,40.20388816959764,91.80048192467802,64.8097029365049,51.05122025455364,64.97108534465414,91.52137139599678,99.64271905313275,78.52407576454857,113.60425191597133,73.37970831220457,39.014933933798076,32.38678930684847,77.92876268619545,120.60075023073112,99.93367804938626,111.96763876554192,82.12647075557103,38.927286911763815,25.389667330007317,31.14720921326918,80.7873511309614,90.49977047842269,94.17716874370727,96.85834713217403,87.85143340227185,65.83902324273019,27.915132581345414,15.862312946877497,33.810065237000174,66.3863155007857,81.78638098995306,98.11902093470556,110.25289272957706,96.78255191207802,44.311264891342645,28.450756521073888,23.356099768299387,39.07902157327634,67.3903797719185,85.08470574708883,101.00946081219953,50.42763331981544,34.84312023809588,23.324863891119875,26.409109822443213,34.71669120205177,67.98926268570096,78.66084746764028,44.46538773621935,29.615144012931523,25.25138291279265,8.107264797157978,43.106688924433996,36.5028978113398,15.363287260993788,19.1353725275408,-5.1671161869825575,-10.57652578738972
-30.073009159662238,8.309603918423518,12.829671100193382,11.424749117639537,25.284098069067912,52.73660934658217,85.18941251710817,94.52225768576662,59.14194155848945,44.9616770791561,45.31192138656756,54.15020456824564,46.4993037589011,105.21297472586247,138.7837660519902,89.376343137643,37.253360345500695,49.49104330653782,59.485987722045905,51.30511595486506,63.23686209281796,108.29685357272736,105.53095608527661,64.5329825039727,2.4094971863141876,37.013680471693434,56.316006439785674,51.38061052461546,48.69595569802524,78.33325337789529,99.81961011380022,75.11236558510211,43.650469076942315,30.499445493778452,72.20885037571264,60.021365259683265,62.82533387697573,67.20667857019544,85.74164932872209,88.9117904454606,56.75218683686076,60.23018717272934,54.48940580597814,55.21468032921242,66.19328097320371,77.82409229807084,80.65293780868937,78.67696711940368,43.82281722526537,35.686316621014285,38.19534513623515,44.03345668218987,47.87288530508336,77.13994862187455,49.85069521955457,-28.843538645738462,4.769483134187993,-95.32863811634407,-77.65281876214563
-103.75906937098365,-48.09659152994304,-55.33623977692573,-52.10135701415605,-42.00855341584246,-34.729611294429716,-2.768564286297125,11.441355930043981,-11.028502315695992,-18.43199619984749,-1.9814229371050986,5.358442231711225,-13.690839306676839,22.267567797998655,58.450974023485315,18.63835840961648,-18.81671541288705,5.898309718179375,28.566027895641533,6.287819228156181,17.1852504172273,44.07091117152616,43.7993109177776,-4.244920637182242,-52.42725167946752,-0.3061110819805153,14.683849427845331,13.838722832356634,20.240422354468105,42.313023312810195,55.996721034245425,25.44607234122539,-25.738345718069922,-9.94255877779041,24.947068348062245,23.872379107136304,31.837937211815948,43.1619337376672,57.46581514410696,58.76245523478983,8.198117242955743,27.279422300083247,32.11789370764758,25.56110779876446,40.739758315013546,57.26141814782625,72.03899900359593,54.67158277622134,23.072440938044572,22.455116749336717,16.53369817748112,25.56445128060086,52.03206537064244,75.19935654078358,66.00945989670046,-40.89356505507361,-0.6723939995246084,-87.48301796904201,-24.448364803313964
-94.5058210154461,-41.283438894697085,-53.04621151566775,-38.79747918422104,-41.29054499007818,-57.486074853470285,-38.62321063393195,-24.710547620215465,-34.75767210165559,-23.120055253303775,-0.5806248633394079,-1.535741319224715,-28.630059251002223,-27.23245526941824,-0.0444773740948996,-27.967443056080235,-21.69962677960443,0.36731960252288953,17.268725231096205,-2.5294722033067805,-7.722175431755656,-1.0444309646180976,-8.972009134913622,-43.580430808257944,-44.25644050891789,-4.420014598854793,8.19069123582679,6.483385723566409,8.613709732746594,18.219172796807634,7.8195202771664665,-13.039052835545498,-46.60048478450956,-13.225931111841888,9.547416624257394,6.495037013978527,14.413871801919026,16.53194934922445,17.430709387525845,20.124476982467918,-12.00259115679901,8.682007217061269,23.57401750606673,8.988866016169517,13.970016307744215,22.817504873581697,35.90814884963676,22.82896264588276,11.474437766886659,16.772958519837758,7.360023832399962,3.036223414143916,40.55353205902896,39.43455636295843,51.25201212926832,-28.43533355371291,-10.613696890466882,-36.01976987334063,27.820440807250023
-26.522393254821477,6.887618255090139,-24.556670364410543,1.4472814708184867,-1.8233903641429534,-18.740911351065,-13.191041624954119,1.0223046507448394,-12.656928806794348,-38.36732596753261,-2.665270790405785,6.973525596251774,-4.651672523701482,-12.91634068749784,-2.719187726316462,-35.17678751168138,-45.550905777105214,-28.449010158567646,-2.4416224424669437,-1.3062643453522615,-10.928357531299548,-6.820051281690462,-27.1202598203853,-58.182503497054796,-68.0291442526478,-46.599267647236815,-19.718279586746,-8.250703790578138,-7.729156157458281,0.9639642580583371,-21.98769663068292,-43.81110155357361,-52.92180305487876,-74.13116071858045,-47.686072195990185,-31.41829319322946,-20.56403503267294,-18.79284189037803,-21.791154205255204,-29.83284656331201,-38.577214536266666,-61.327116433272835,-36.17824378717952,-41.95830964078402,-33.22325463043312,-25.460964942882626,-41.66201154439174,-35.29516700398332,-66.03304473501156,-56.36547097951863,-60.18150233593972,-64.63817540538635,-35.66398048083224,-62.23547160667105,-50.21049002232441,-90.04920860770943,-92.15802750851691,-92.23063043289713,-83.94139636860118
33.14502210430386,25.839802713288645,-7.4077596413791955,2.025329819210241,-5.6647303564747284,-10.238582401070465,-15.530769733925123,-0.7228248368395285,-11.584811239399562,-78.10214215033002,-51.56377394649417,-32.6235573143428,-16.129308709053248,-22.476266474170842,-36.41128895772018,-53.06095159625058,-87.70806047544622,-85.23850212036898,-64.37591090577352,-41.68269251999789,-36.19633499796821,-42.46440613820062,-58.459822653434784,-77.94290317582883,-100.31030839543081,-105.13026928470066,-85.76146146895864,-60.53211560637295,-45.74378969039796,-48.0485322032424,-65.69772999736315,-82.62966979367746,-82.67441561420054,-139.6001599700022,-119.84865722181567,-95.92528526473163,-76.97109785056006,-64.2861604841299,-72.27927868139537,-91.35019191354259,-93.11730282759616,-130.0239574455751,-117.29524758486332,-107.19656676205504,-84.45863392141142,-85.497328492702,-119.40084545837983,-108.59735042051,-141.12393093954353,-134.01557654386727,-137.38540670861101,-129.46219891359362,-122.293646545894,-159.32346286411214,-160.57089000595857,-153.73584089775557,-172.8508572701415,-168.23501067518015,-216.68250847524845
58.064187142575776,20.774072381516632,1.0421235316888597,-9.096175548135431,-20.524318074758234,-17.29577351573689,-40.405931210148125,-41.04240429256495,-28.07393326737282,-68.3081777099157,-71.71090818833154,-57.2525671550856,-31.796236954247924,-50.99575704018443,-112.70019647789098,-81.16774014158239,-58.86034365878542,-76.18459163195895,-81.95515135902889,-52.493557255229355,-41.69056420731869,-88.22879643127257,-95.43346118667228,-82.64450773003551,-43.11608595568844,-72.26496704912776,-82.0648679401818,-63.66120843110806,-45.718758692600005,-79.13060933790982,-99.24834391560493,-95.78027080321178,-94.43727601292159,-81.79801628456889,-79.23709941078303,-78.09476980342212,-70.66858331678532,-68.92779808480498,-93.32868406601705,-115.24488394754545,-117.42505025513556,-83.68857009390248,-85.64675283975714,-82.22471995076698,-71.76032234807077,-98.06742125954565,-121.98258439806565,-132.81923748246123,-94.49245422279583,-85.38068613815761,-91.16112118224109,-97.90471748982972,-115.09089869994318,-155.97418576892193,-177.48353772690098,-96.38696884266639,-146.29580060821803,-122.3487802031358,-216.75324886485623
53.00568901016344,11.24143800742982,-4.241578113127762,-2.5820457700729884,-2.1373991220765296,-1.5031002293649625,-36.277956251259624,-64.26395077206115,-33.99002091642953,-29.686308076875143,-24.619183584047292,-22.58792774953404,-9.420308612617134,-41.131677490788746,-134.62567312729368,-77.36884044694574,-12.488797604241475,-18.411832323031735,-19.225972512045175,-10.24334622447248,-8.021560979173747,-76.92488061845698,-85.97252489351695,-58.27675455422977,9.943530497510821,-5.482781808845861,-16.193059264664935,-10.060485545519905,-8.703198691343308,-55.76595889914449,-78.16684552375222,-68.20881467823882,-65.97560970174689,5.697935651745045,0.21743336039503314,-2.866624520575227,-16.177796704137617,-35.13163427866593,-63.996537008303534,-83.55444178499117,-84.83875314459183,-11.928167120644645,0.6612443296111126,-8.039602949530178,-26.009745107962694,-55.47161329326432,-69.5145716508881,-98.1977839066314,-23.141812617632887,-3.4573942749960356,4.989416323598909,-18.588563103817794,-47.640548895381485,-84.6986444863491,-118.3471530608217,4.937785281743077,-50.776814921954625,-36.869790490419035,-129.20740142706063
39.03821161030224,-0.3342373235334215,-14.62693832499475,7.031773132609333,19.188083781821835,12.936023107026529,-11.843282145257263,-46.14064530651486,-25.30661171143901,-30.70809952367474,14.396775010395476,9.508755998924983,12.412488445552313,-8.636063374229058,-62.4639608885037,-31.16309948255072,-45.67252595433283,-10.247470733894176,22.125182882295448,12.404792166470216,11.919148871483102,-23.681996311672705,-28.51230853450299,-13.651898348457518,-42.64804749859733,-23.105239915523857,-1.3996580269190915,14.40153808523701,6.26755238459471,-12.686056653638138,-18.99566700452589,-19.862793421777802,-16.724811116784426,-22.900718684294482,-11.795969126176688,8.84317928807372,6.848625266485044,-5.3750960780151775,-15.16230408103419,-24.67489126454712,-23.184712065587856,-38.57581186620073,1.5518125989677927,15.433010033514428,-2.1721074767989546,-4.071115201097189,-15.336729477636291,-39.5477451703628,-36.06269580326686,-7.166209326856343,26.7851810483713,26.95645506112755,12.262178573176614,-12.17587216587936,-34.200836450820326,53.5684524112052,37.10619132513163,11.511450275066128,-0.008703602298537838
23.101029602053273,14.13213020049266,-26.69100565848764,3.591489716267735,16.492470948523327,13.577270202244703,6.926544311923854,-0.9735190057810872,13.589450978431248,-46.99746380521573,0.9313258411969622,9.739015317407855,12.968046049762044,6.821928249117681,28.99791647663853,36.42584907800588,-83.1769559275998,-32.53631325209479,3.2781314245355713,9.395173621637444,7.463773773186615,21.67815338294648,37.15455545942042,54.867011373025335,-76.84813053061919,-55.65969456261176,-18.839132465170028,10.787841740491894,4.547109298550783,20.832400668941787,38.390459628258704,45.08698084712398,63.43996164820457,-66.89357565069619,-36.30176778233525,-2.4275571854313824,13.530584212421438,20.843074541603293,35.17954659117507,44.21340440568139,57.899355017555195,-59.007914175629374,-15.793529070849255,22.236872981512484,24.39033512054669,43.464048613846316,44.427776850507485,38.51846981180263,-22.13463309695127,1.1970228457848862,38.80337402424968,65.09168620845321,69.20751346716528,60.751943324982186,58.41069679368546,97.57606676356087,111.65452254387148,110.5423497913061,148.53425859799205
-16.441625766666235,29.43117083657979,-60.91622072783741,-27.143429480770436,-11.554340854223836,3.3139199586444565,8.14416115852515,26.138914511542914,50.13226791747064,-41.06517931093678,-33.78025238085547,-2.596132949634101,5.713625206968862,5.493160590409304,65.28650312108903,85.25617005505852,-43.32582433440474,-22.023541117966065,-14.744189518378366,10.076558065773227,2.0456068629852586,41.85405340310475,75.3920161244447,118.19646276134294,-5.3930685665276386,-15.262100340432877,-1.6941423815400514,14.121007807583952,11.995656387718775,37.660716749672225,69.09676132375267,103.60298011573002,148.62774088336857,-2.2804729251953897,2.8291943848462493,28.38988999019137,34.496201384267934,44.56126883758779,72.4253615623508,97.10050376250817,131.10834478205277,18.333304641248958,31.7392655071996,53.44958227369552,58.88095207144747,77.7051319011797,99.9815937459829,112.8476424747848,77.7287188591551,74.32064677139817,94.21552751525779,109.56244876606362,108.09222604223265,125.15790820473066,136.3625130492184,154.1993805545717,167.60151970255484,252.1571000827505,250.1357138662874
-56.40834474304332,-7.035301876694184,-73.523376785893,-63.88764773899297,-47.80550166898081,-18.868545853742244,-1.5157693598727733,17.967321516488532,33.35617407621514,-11.553232283637257,-52.32014771857256,-29.302368082942095,-16.478112083004447,5.190460757535032,59.77318629364551,86.19041706218977,24.863272981549116,5.330414743255904,-22.216642008496343,-6.882757623501676,-8.334388250856314,37.03952506018057,75.11178761003347,123.5447185831382,75.15902058514682,39.89236325941908,15.13079659169005,1.4582292355437592,6.734100353788459,33.72673452194565,62.723176601266054,108.34323214461119,153.77789447728006,79.89889322609461,38.651797779756414,40.52236801314733,36.234809582173256,39.00813638909145,67.63064508214737,94.96341473592548,137.747942731327,88.4807167246444,64.47278134516971,64.05050335368242,61.45081853973883,70.81870138677922,106.2125337842102,125.70527645517467,134.14948328443097,106.74495019313697,113.50544827890336,107.44742187237122,96.01060429168079,135.42067333640773,157.12068270045853,150.09002147409865,163.77701044992563,270.48435660354164,254.9986718831227
-47.07975114614035,-49.95292999976315,-3.3711328095400597,-49.61129935718111,-51.85509484151105,-34.33222449997078,-8.713351195954594,3.5210779562149934,1.3536590108555848,53.708718748670094,-26.309881661425692,-47.07127358980363,-40.82000935246977,-2.861612809033637,40.14246323255948,52.36077974165426,85.17864527777682,35.36841048575751,-24.93520759158794,-28.57778520624631,-22.10831621703406,14.414980822591708,46.89056171717043,74.33697675896636,112.04306511202944,71.1442551786497,18.40137825282234,-13.134388196287313,-9.196659584752194,17.222318986778937,32.34075561561829,60.92988319992311,76.85897957710624,97.24102443446536,47.98325806823082,25.956685081856584,19.260293479847686,15.864452412018542,30.72702487258245,47.999557282046595,76.8870211194031,90.19198350094516,49.61055174208859,46.54287421883536,40.682563545571,37.17353830368851,66.17359308624836,76.71946703333253,98.66996332488742,75.70136304293717,69.77387505397097,58.89240483961258,54.321236751325046,86.45701671783299,106.3104963189399,74.59301931911395,94.03351377784074,131.66548695350616,159.69641477363135
-33.54324244963266,-75.6664253051078,73.90885408617474,-8.764983260412002,-38.889318610832774,-55.7671378463889,-50.00955159387864,-42.929575102586455,-36.36893977229324,113.66519624151167,19.960314817933565,-38.74927872830566,-59.710177080684446,-58.99471187430514,-32.48697196034079,-20.793698208154456,127.49203823026787,62.321673969521584,-6.616707184812048,-36.139023437743454,-54.07945840836538,-40.006899598517336,-25.903249465399135,-18.133063915021197,119.43525457583493,90.0047129123967,32.56233462514365,-11.168236759931865,-27.010726927289824,-28.361509446588016,-30.97146634175972,-24.426951098339778,-25.833469278479186,91.82006553262565,51.28341614378423,16.477723065962827,-3.7429247350797863,-16.893442352061925,-28.399315970574037,-26.178340113378923,-23.186061869864037,69.92941704022562,26.483448611444423,10.195450388599959,2.523675117318091,-17.684038462731007,-9.405231371084724,-9.141295845884201,39.44346541804919,22.988847379318553,-5.60124130214442,-13.131261604233268,-14.562684859820003,-5.031518456952268,3.24410620501866,-26.224322905271425,-16.419798407328607,-38.63069094222666,-5.587867618631833
-55.66155168801054,-111.20586863927484,76.98057679129654,-0.1598220558980401,-43.33248823652479,-87.30950484686569,-112.74933181264687,-114.5061055231599,-102.38559193468623,111.89650192680483,38.20102347758723,-31.328778105251047,-82.46260956652785,-124.54442622037591,-129.1762846602937,-118.10216415572025,118.83304238191656,59.186437009327264,7.513508466324318,-55.76614457468257,-101.02185654684048,-110.59246475685708,-123.81604531140815,-134.2029559654757,80.75784186877904,75.0149338478971,32.25370263466803,-30.12207674560491,-65.36160930308762,-99.53512060269429,-117.54410669536455,-126.40698436996959,-131.88838520315727,69.92825754739977,32.85539828468788,-19.733356506185803,-57.07787181773561,-79.5654741790189,-109.041643654283,-115.43786259984239,-133.46346220031558,37.504968892528524,-16.849526838035796,-62.659273702354916,-77.72374862568982,-105.61109153368685,-116.7946189020806,-113.15803692735182,-21.419294984568193,-54.57241089625511,-102.90890939368484,-113.87010757501017,-119.56538784854757,-117.37820002141734,-109.56928348450325,-129.16498636512043,-139.26748888435077,-170.37481174291045,-164.334202863011
-24.15990078049216,-66.63826375930128,78.06335633918519,31.870256947999984,0.2775036464827574,-37.27754859927526,-61.76793891362698,-69.7080845773366,-82.814096833529,99.22676222384709,66.8416645216588,11.969555838847445,-34.59411754584233,-63.47957454476629,-92.65757052095482,-112.94976351354401,84.44260648196882,59.10097281707615,29.08387917295943,-27.61314115911392,-50.84690459156685,-77.5847280859056,-112.18929344241576,-153.42284548794197,29.514098220425367,48.61421946426965,33.541989222485036,-22.798128387714026,-50.8103728936244,-79.75020024612743,-103.98945641021172,-133.31935300966066,-161.44340201047618,26.815302829662432,22.090837773216457,-33.72035332541482,-70.51765922215452,-85.73342825841426,-108.85453426516729,-118.05808038931303,-148.61976476386076,7.144199179495875,-39.722005648331006,-89.5413966324554,-110.32153025003532,-121.22560035241474,-139.36472892254412,-131.14588904429453,-61.93833276414637,-94.34932457469165,-140.38264747400314,-154.46627687991142,-148.96274291603817,-143.89300254869556,-136.82988758568052,-174.02359087834583,-182.10778671997127,-227.95152624356362,-208.58098694795072
65.56656559199892,76.54557635135436,96.27304611165377,100.9289230182026,97.9511186968808,92.83156021896615,95.96780215304565,91.33638171887986,55.18580089824842,85.43156888727533,108.72364974139356,105.30547397067316,102.39918876315491,104.64347445516323,77.33714193963743,19.957651289324943,42.83505450597882,69.94121416937507,84.2009192048593,88.869852970242,109.98638731982604,77.8245355510244,31.57399554027354,-35.651540460046064,-5.83426300662917,30.25235272300307,59.43731454486926,63.03846944044987,71.01420775097044,65.65487488365834,41.34222847678913,-11.65255099174511,-66.97299856053696,-9.424856687965299,33.16695203362588,29.77402797643281,30.290856254399635,38.19319227938189,27.01549485855542,7.31788861348825,-36.801189739386444,-1.4997353505110338,7.962297584099331,0.9759951489151346,-0.7783845975147035,8.938992568537689,-7.833499007373339,-17.46472206411856,-51.53691944753203,-38.849628831969554,-52.50702864240478,-49.94302592739753,-27.593885988970225,-30.21349713398255,-42.95184079361452,-105.0310924723586,-83.58498525899245,-164.6022157211193,-111.22450927551563
81.93718957494202,147.12942063488384,36.23441265128386,94.56906610612072,120.28877402461688,148.05614235133177,175.50565912974767,177.79547010857954,135.4477038043491,-16.339783514180056,67.34725738419496,131.73892555752815,170.14378576872724,192.930067971129,182.28803947173253,106.70880642828308,-53.22185075829465,11.651890817459648,92.82401643560955,147.89711715314525,192.25631034732794,174.36439382358037,128.41790412758402,59.76924529850347,-79.25342873779155,-36.14384436312511,37.611959499343556,109.40329866173504,149.53369976693492,159.95680178482036,139.17303364020444,81.86559238360019,22.098037916289417,-59.4585563757859,5.454488178187786,62.70714932801165,114.20777676551083,140.21576450504335,135.8848131809366,104.24932325889426,51.5543836775681,-26.804440206214487,38.66906367490992,78.18942078725487,111.84327430094626,122.3794927481475,106.77704997855949,76.57147194122973,-25.665792837815662,24.309395189634984,47.05124481654785,71.12717311709196,90.82725283668591,76.23927630828743,50.01812330618321,2.637862473332337,35.87299770880065,-39.88434735604791,6.604747147132414
46.589906762334834,128.6332637075095,-55.15976836626187,39.14016075658178,79.39727743293949,122.3787617392812,164.28635238952214,169.51958273481324,127.60550211543254,-137.86677318355592,-10.489556158007915,82.06165036959686,130.31608199433407,178.61797206029263,178.26507228661518,102.72787079646513,-150.57382782257383,-73.08701271691137,37.60225540180275,94.19847791052763,150.05722183162732,152.46858871532478,125.69282365937838,70.72864433428757,-152.33769157736393,-110.99910809294607,-27.453565678479123,62.106098072704214,102.63993451182945,130.15121717021466,125.71615822516216,88.39701579959721,41.245839043669605,-103.25135339722729,-41.270108280736416,21.405661033662618,77.41278089680853,108.08862008134597,120.52395353324397,98.89141181860481,63.970106874562106,-60.44017018742745,7.487216418093233,49.73373993354705,88.77041653531776,104.14861422598864,94.71882028898139,79.17721808965203,-7.664196435359898,31.285409734605768,60.571370943075365,77.82949817445557,84.79227733677371,79.06257479993468,68.23666441415615,51.939769021152166,59.70328966525955,40.46249597564438,36.86426205876473
55.04872778138597,114.67955483457811,-72.73244453262254,35.38081806135412,75.26495623329023,107.21547802644287,139.12807999226553,134.8466189965602,107.48550772818705,-145.72085894812437,-15.687934645064631,57.64947219352882,93.54007154990484,137.33326031928866,131.52678338316838,89.72032199590623,-146.94673345699383,-76.97966044999015,9.404463228843602,46.509563276566084,94.36640773680514,99.38192297175553,98.04996616137976,74.23507776825406,-127.60925965360892,-99.72524153884015,-47.032444268054306,22.25044946459907,45.722636239091386,73.73512660689039,88.64098416547188,82.19907302788036,66.77719590652191,-77.40418498494884,-50.0150385797905,-7.475465721715633,17.840784258293912,43.0527112364274,69.08908391976414,74.35065130894245,77.70449474446343,-61.160350802147754,-16.144269638165117,6.521072858065107,21.825700955904,48.98837133388903,52.636543753716985,68.72954698384092,1.7481066452052971,14.811058033121597,37.207310293241925,35.163365103809554,36.765631011076906,50.042748997635286,61.172736080890246,51.62410670904299,36.40772111925327,62.64257824018951,12.212927850619142
35.99740725704724,32.73184895343848,-70.05104246405045,4.134429031237596,32.85240504034892,39.119026283499586,29.390851987766233,7.217042064931489,2.181173172368323,-102.42636754119562,-33.6444489200847,5.871859110940136,23.613040240450488,17.225903533157634,-2.5623291282744773,18.45723710161333,-91.82279594545969,-65.62644992689064,-24.431858728803164,-6.776046045896966,-2.9993056213677622,-6.474482205882941,10.320652800352764,44.62970501370528,-61.803699653737624,-65.59823894993718,-58.381060521491314,-20.445535372709493,-11.970327031116668,-14.814497338685202,5.73146555993398,35.43744622103529,70.04475201020774,-42.641725097229454,-68.65125101848322,-41.07511811493568,-28.190280969218193,-20.206210214787223,-3.6019737048185414,19.929666839011972,54.151324338904004,-69.38777445315856,-45.78270448781382,-28.432799129988815,-23.390703499922065,-9.536714648045017,-1.6299404335302965,28.139814067503686,-36.843211270468345,-32.17093427542022,-4.999102474820662,-4.293158378134963,-5.833784043213362,1.3308348654661208,17.919551698783053,19.025310123756544,5.012315939455075,39.25061239038527,-16.5441204520773
-39.516864188542954,-104.74762737729446,-75.54398477780296,-86.78827399569649,-80.99784450000287,-89.23216022870025,-131.62118347110248,-159.11878778015955,-145.88002363894807,-72.28721526861415,-106.7398525746957,-111.41368259368662,-109.43502994824729,-145.10558962365207,-170.49069425261808,-100.49314834518987,-50.25981060742167,-89.18410218604828,-110.47510013322645,-113.02440417958954,-148.39663424755864,-148.29130570909246,-111.7413869845869,-28.832034657162183,-25.049294177436643,-66.98730150470487,-101.30528579105447,-110.57980805471345,-115.97494762049232,-140.6499942629133,-115.6735110599147,-54.41731080906246,12.26778903848108,-52.46824308979036,-103.93848017511712,-106.1368616066986,-105.43022253357977,-115.09647301289552,-110.33223428816893,-78.9049029967203,-27.08934121684566,-91.89859824810145,-107.07878073989556,-96.65078557913972,-95.24859575669778,-97.67979522835014,-97.42312290641237,-60.63418459827205,-100.06195045817347,-102.51432477674308,-78.80753676010494,-70.20579259707114,-75.89308868471794,-86.22972015252496,-74.76602570400486,-53.89054813833445,-60.261395237991024,-36.35023957882522,-61.58569296307044
-74.21606701616813,-148.0836432966049,-38.04764418672249,-116.3357787703666,-138.15785332589815,-149.87925610331334,-188.91874861866893,-204.51737316799904,-169.37983984346187,-10.358253932862192,-113.5239571131142,-171.26050014447105,-182.21730260650594,-204.8179402011165,-220.5202432153681,-134.5823230105313,8.885569084046631,-64.38744274524194,-148.03091187234003,-170.99564453895127,-212.5805096222386,-199.4676378351005,-149.78898564179312,-64.58109266707189,25.38407822207789,-32.23125646313813,-97.26802731369433,-155.3428412700363,-175.16069022445555,-192.4278513553454,-165.09101834904362,-97.67283477499304,-30.09808168762492,-32.685545899778646,-78.67725744262972,-119.94918302365761,-151.59911758122104,-168.3533970326958,-167.45425656343704,-135.18852130475048,-73.98356843671617,-61.492917599967846,-115.39535119966338,-130.96286964768038,-151.98579449606137,-149.4335426563173,-154.30867114238805,-115.03418097482168,-96.54157187458728,-115.86837416170849,-117.91189361889678,-122.94161910931567,-131.03022411121918,-143.1237614166921,-138.51266014725024,-110.26313620501364,-121.7779567413794,-116.78582258837992,-117.02181997482984
-80.31176940103208,-124.97578072970876,-14.959866003438167,-91.99776474664841,-124.27252312764941,-142.07905362650152,-164.53485405585997,-163.48138098559195,-116.2753493964262,39.12730869909521,-58.12401343421642,-135.9221507674893,-159.50371028683065,-175.17694302331404,-173.81137750307911,-105.10246509599669,64.90355520263003,-0.21492453585472937,-92.61454064436516,-127.83439729918504,-166.76639766654057,-153.23137165503857,-126.51728838417309,-73.16289830820794,77.84415866405982,37.43655078973109,-27.968608593166408,-99.36177916691776,-131.24866661667136,-140.75747427015142,-137.67735213401102,-102.0833122127946,-49.36017652382142,25.618281973272413,3.062100663929895,-52.34440522093473,-94.42249777884533,-119.78274218780722,-131.65596288318784,-125.25538787735209,-82.12322828420234,18.432578083872396,-28.675861835265575,-62.025511823757384,-97.41958593881859,-108.6488863478663,-115.05951311661592,-112.88620489157722,-10.794734059096722,-36.014593133489754,-60.18899342326522,-75.56087035991077,-91.67741706361213,-111.34477605710076,-121.27597648863068,-60.34657189810804,-88.63232762681592,-99.48959949546897,-99.87089371237279
-98.49895152978647,-102.99468923804235,-37.46211886460591,-80.59203368838024,-99.48063685548915,-115.4139969742094,-122.2638453478959,-104.34778540790447,-73.34326081477049,36.45013272093354,-20.77867440113753,-61.626738035966625,-89.79163953316309,-107.63014574177811,-91.49050552862933,-75.63810318164467,73.43686630493076,41.63366690536479,-7.050919972108227,-31.061785692710153,-59.70679283100546,-60.45712337422147,-77.32709012296976,-75.37406908779694,85.26596562266582,77.33581177480508,49.992036354009805,7.332690726512935,-19.15647831374611,-27.906036019716026,-57.46096748769631,-79.50189599666207,-68.63971741245527,67.91434944732221,84.33223522465372,51.965516467080825,36.61784537996552,7.461133086487568,-17.00719248991972,-54.8638546348369,-69.4705283997719,96.9726776375888,87.7166908104801,69.81409627807443,55.639066577633024,17.083295365660344,13.054215983801768,-52.46528603260357,103.0491150175661,90.18176345613794,71.47906249004848,73.74726712297108,50.56622699216355,20.066172401693052,-9.402935231532672,92.68422011403462,72.34338940291858,69.95183714655968,72.66056820788948
-72.61600480503789,-43.11635412600881,-14.739059085091633,-42.22309616054691,-49.7377879146435,-56.521737201744294,-45.28663328494953,-14.026123127261656,-1.56384677356675,51.219707483419924,17.404503915486664,16.09389285211298,-6.760198930813669,-9.906948536643917,19.56829553340548,-8.076068162111518,64.84414451805128,73.11309536696444,57.509068627049814,54.929749521976234,50.16967462616135,44.26409012002935,19.58248619546515,-25.417601654858093,75.5796949694276,89.68132084068608,97.33442901033992,86.48950130480527,84.71256618117079,86.6543895081744,60.28808999159165,6.469410238818138,-35.17307900313785,92.82988092513193,125.04956427766245,125.72870165251817,129.57183944902403,118.14711982856362,104.69340770393458,62.61327844166184,-0.23439839763788495,137.02192568403515,146.58038661657162,149.53481495584367,158.93387444263726,136.29488006865978,152.1756313150317,63.37400546308148,172.74112188174382,170.76030529777492,171.2869334227007,185.85884598347664,175.3114688127789,171.31477380274822,147.047046739899,217.2846081364292,235.90916500816667,279.20729647589053,291.33611104543706
-11.151402564089938,18.68287489925168,44.33868084949023,15.172959402153044,1.975615442350791,-10.069425649453601,12.505175844237513,46.66152451090524,60.372417326840434,77.64908156224014,51.119965068850945,41.68963994984885,20.52481342732218,32.27138792739862,75.90308181439832,59.74951182439616,57.68682869660498,81.04999827538458,63.80759389654164,58.438772150161014,63.73645211847451,71.77319371993786,78.67410423511541,36.46971053532073,63.3206362300142,78.64768273257785,86.55351592452078,74.93835373598449,78.52164370478269,94.73291590820334,99.09050580872069,75.25429737481628,31.360450369757483,82.450126258116,97.27167898824067,104.69449027138012,92.39004575202438,94.36088890256377,106.5795623185856,111.4232494969286,66.67400507651065,108.28571900422173,111.38419063502286,104.00749515252282,101.08065747367222,113.86210601310955,152.27378294756662,117.34068555598485,142.33695503419733,140.7720069104501,141.97411032645454,133.5689068332131,142.07158416563652,176.8017056598232,189.0266361680416,188.89381758924992,212.65259509600045,311.27486173071816,300.59661245977395
26.290699291467288,46.49705788838645,59.09599759338287,45.373649559794,31.298419424233227,14.853362780108588,36.86866899390687,60.338261757022906,73.48711136655898,64.43443997653247,56.58114917467028,37.810633637617,22.16595529334296,33.68236507286862,69.43734348581779,73.42428795122336,42.78088143528086,55.44861507962919,44.952562329060115,28.734240308597094,31.476898223748762,46.5468653925343,64.67865188888716,57.98191259899637,37.155666910762676,47.71730780504836,51.134343655639086,34.78162244198454,25.362032959456688,38.020898349762476,52.591441761043335,65.99201509532756,59.52960002087411,40.1330905622107,43.809950287208736,44.102626755197065,19.59108566535096,17.873513619720924,35.57558263153763,64.93094038491469,70.01088090369304,49.58956461423156,46.78048033348085,27.1584200034412,8.352197326562397,17.26548565275691,42.636521209001685,67.08842779876105,59.55500570269461,56.5355813364462,43.68633145193742,12.920227989035503,23.94516530455723,52.17067003764866,81.47213340671141,50.020172999477154,37.073566009386816,123.31129296113988,80.60884843117347
52.89354741392399,81.15250896364762,52.838890149290386,69.7773664261775,69.37685158879904,74.73750892939219,92.37695816559186,94.8906574418231,91.63082049623988,44.64224449594316,63.74224128698221,75.75804836822655,87.10159039474604,97.37209405447057,95.59820354425861,83.76822457980612,32.301730226159904,36.639714911904875,62.30405078755623,61.00402425579195,78.61832973351639,79.17876826376337,73.9400500001525,78.07576002101794,16.83499673125121,26.49567862015501,37.65661827223546,51.59785024436795,59.75925512744736,57.677632009374406,54.581581764375485,59.568056910779625,64.36697550715797,25.197332756169097,17.779121252777376,25.337824095203715,33.10343108410194,43.04807414906804,39.18156007756427,43.54212496236536,61.90988437277632,18.375402684335995,17.057108138472756,18.56078468782554,23.022509809526547,11.515775382616145,1.6490343542624335,31.630350629664953,3.838406993341147,4.142422046956327,-6.959431405502384,-23.993290150858453,-16.80075863449394,-20.416203811600457,-14.884542991416055,-56.55206793969681,-74.17339498757286,-82.238640177878,-101.3265910811511
87.5509722110784,104.15282391410508,62.78511438572497,91.53430434441039,99.89246182178971,124.95520465081313,135.83344599004715,125.92424827243326,108.4287838456473,31.64508908033387,66.53519504943085,100.25243830215842,135.4499833869644,141.80942475447853,128.2030396908438,107.10247345370672,19.716861980517734,22.752696497472474,71.17985814287971,86.25133273531668,119.77385238748494,114.81021429670423,103.08454678593267,99.48915891038337,2.22834124528974,7.870344088070615,18.74207019198723,58.41820820908397,89.66736021872327,92.12405837268568,84.72428443085352,80.01054543894867,70.85050368194135,26.521518595302982,-4.108894194938069,7.376034633523819,44.10533427146453,71.74233947363018,62.18596085880043,57.429649896629556,63.74226866726538,-6.479534708342756,-7.247457453970313,8.76411829290966,34.18184825884333,32.53648285832513,13.793083958527497,39.87997738692021,-34.95944708397229,-25.600717529285276,-26.779449032041338,-21.5761019964279,-12.740358702203743,-21.16019071207364,-29.94976015452192,-81.58089963671225,-71.08935082716025,-156.68114983610474,-120.35603682931443
114.35622305572457,101.67644499457896,65.81564302016312,97.87789805565876,107.95091487106696,122.85619857407762,119.7644167035634,114.54882600719078,95.72945209776555,-3.094446906925666,47.71150968592225,73.62394124870268,97.18525562706154,89.15680774378139,102.6075107103479,98.28270373536435,-16.624008921505254,-3.0308383252452105,36.615202683451415,46.61345539721139,65.8826666713965,74.18376761011436,79.54985493630281,77.18609897410954,-32.023296921124434,-25.394075147363097,-12.840467427448377,14.662001966930639,24.80330938389216,44.229817650616575,51.98907549475486,64.12889088985119,50.039887567826,-5.667440080030113,-34.95743015208488,-30.059650596821264,-15.908496456688585,0.5345929586322526,14.345135112234129,31.753216112156984,37.36155946061486,-47.21954453635525,-46.47023477618703,-44.808734608617684,-40.87340128735457,-17.301457097725404,-26.171894885289902,19.175406591546036,-80.47507047630543,-63.57227252262248,-68.97625500777946,-61.64361753424276,-52.25285828255204,-43.36079359600061,-39.240806143579555,-94.41972911459023,-78.16348326226255,-169.43390197487605,-120.7699138115249
106.66136869547383,89.67532508842609,43.10884711322528,86.88148440979393,102.4159281481115,103.51228326564197,85.54020178849512,76.2372256606138,56.86630657826913,-43.87394237937458,20.369514186768505,48.38104247363599,48.19985536128069,34.92111680886475,35.90762371217072,32.056006420380804,-65.84515503925464,-33.499414273425245,0.7715241924740006,7.705148885055742,6.830694248244541,5.822567856147561,6.359919387388111,1.3252725270212213,-83.00451332155512,-65.6988892240544,-38.48414100452571,-16.462159713750154,-30.035296186453593,-18.798653347470534,-14.786151591773415,-5.688440580756669,-22.68911105066448,-70.05391125874525,-66.3107861607287,-54.180878158732526,-58.32074974237317,-56.998378723825994,-40.92244050413261,-29.215464753306435,-27.522565647375522,-94.2398948992672,-83.2566890341217,-80.2506500062222,-86.78266645040648,-61.64537819749482,-78.8186841769809,-37.6832314308965,-122.79445093912153,-108.0726207648445,-112.83533658505762,-104.85928761312078,-96.7915292741836,-84.8297430184011,-78.54107033745629,-141.6025758102245,-128.23474646785363,-199.56550607046904,-175.02629738116917
45.63155549690036,30.044087244915765,-1.6809583347593557,29.458368523388344,46.443471303246696,52.165629070858884,34.06510158195732,4.081363642434159,-22.49234858405668,-61.93011074038324,-21.52026248389788,7.062528157821383,8.810097087631782,9.696497851780707,-43.65094959401473,-71.59760618226036,-89.49143265065788,-65.7801994400629,-34.6457511487875,-19.292497282363307,-15.66839482818173,-47.688790795873295,-72.797179348541,-95.02265336667963,-112.47453812186916,-96.47945308979992,-68.81031937970124,-37.33092994558501,-40.584901853047164,-51.74611370606077,-64.38774361635816,-85.4673895438258,-113.26686421361194,-133.27418408683295,-99.09563395221966,-75.99114317989294,-58.80816266559048,-50.83056768069899,-60.331902477256406,-79.39419096809826,-98.90537801303194,-131.93299434735005,-106.86394289565595,-84.87142515258137,-64.72381666156457,-59.32551018666288,-86.69011557786752,-83.62940357619047,-145.45347940667085,-137.33336907473142,-120.67230094975328,-101.05448463813374,-93.3052178789195,-95.50222964186666,-100.09219843834725,-157.80618340943823,-128.90080366607174,-188.14774843748683,-157.74449229399485
-24.135530212257866,-44.95781689584328,-42.936170742898696,-41.472098135005965,-30.261941070919956,-18.460790677158464,-24.941414054422427,-62.3741793310662,-93.42992303979304,-56.148569922271804,-53.238978343124145,-47.99460537590845,-31.291525463258484,-20.882637451325998,-81.6738710910559,-125.57019784010171,-67.11340150040758,-70.41389296226271,-61.99178292924478,-39.246104668822156,-30.57887400233298,-62.643471363248295,-97.0355282326307,-134.06150135746566,-91.10068521281418,-84.5496524982466,-70.69401359478012,-53.86517551350912,-45.61289442472059,-57.82506451653809,-67.66994340864522,-103.86228242664896,-132.03089882041297,-130.3772376249031,-88.3176823871301,-68.6710484665524,-45.43908781965453,-36.39731682250333,-50.43130323452941,-74.20714285590134,-108.29618281184693,-109.38812841596342,-81.32266933038086,-57.85589679349383,-32.45625458627351,-38.45714013064193,-48.45322137869867,-74.04017074783866,-101.85381225869251,-98.37291940337165,-66.23519220765972,-43.23032509058154,-38.79722671009512,-46.176422047365236,-51.41464564433994,-68.55995686379475,-36.89062560664263,-79.03122552989146,-16.96568926961004
-52.91965669008852,-62.90473190329345,-59.93614343438475,-58.7811231800558,-51.644238931892005,-45.98558593848144,-49.49751871615825,-74.04110916096059,-99.41554269678424,-47.993523757220785,-44.76594197560992,-54.37367865596207,-40.507036923522385,-37.06500281292078,-59.96984287655414,-89.85977545658734,-35.83601860372788,-41.183954393019604,-47.39347866635617,-26.67036752963226,-32.66135466978908,-38.71680528730799,-59.16309798215293,-81.30650848081201,-49.51918760396107,-38.87587454751774,-29.575598491017388,-31.101886249530253,-23.361522973262627,-27.53604759095254,-32.01691240912609,-53.42446848171194,-52.38135563479581,-52.78967074232926,-24.04585666421688,-10.77846072261308,-7.799858791327331,-11.903485916414375,-14.035628751808796,-25.129004027032884,-40.22785227423677,-25.758564518047194,-8.440860457114237,6.679118538932599,7.3566272509579616,0.7513341861928176,14.466872549860023,-20.042992623013845,6.959337899720795,4.698350281288413,25.808025298019942,37.53545988690086,30.586158597193826,30.599522809974868,30.700578614055697,63.20800094062669,64.46828075349427,69.15320171782828,105.38952625928445
-77.54941867429736,-83.02286720099207,-73.3450078587289,-70.49536580214821,-70.37762093989897,-74.72790213146791,-80.40092466263187,-87.25099036992033,-96.53777556312815,-54.06090034191312,-51.72411522177108,-60.9111883414477,-63.86349941651605,-61.745708455039384,-60.56524307275888,-50.56018020594917,-31.482370618360648,-33.68986451353175,-38.68283406567803,-38.50019758673514,-51.245748268097046,-45.98527116625222,-40.11491169343206,-16.33758867600998,-17.63181144237881,-16.808422704099264,-20.042348610108803,-23.75093443985735,-16.59756033301236,-23.81675323295868,-31.442252762205506,-18.928605061563754,29.235259595727854,4.980401705793818,10.13343425536043,10.348456321832685,5.133021842903151,-4.10367497715815,-10.911664039104412,-15.899864452074892,13.920743704180206,29.006133613719655,27.707416544099196,31.69998992682406,23.121329343925062,11.90152022804523,24.319779124427587,1.5198960112414657,74.5339967426467,62.02950684533968,59.375307034840205,59.87075507909553,38.16996371089981,38.12272160737674,44.54933471046203,103.58522184917548,73.97111143375207,151.01246931500867,100.93898787612852
-120.88334131759156,-131.73409698612224,-90.52875916010187,-115.77994669623348,-128.2358076530562,-137.40387385065856,-134.4362443549033,-119.3104351186276,-103.30260992851979,-46.06216714638673,-88.99796558751282,-109.22826395398174,-125.16215214518681,-108.23173735302939,-92.26423236351556,-47.48476683585519,-17.018962539705164,-43.67307789898835,-70.59768560010696,-97.72559463308797,-100.05481232079023,-86.560484671118,-54.42997580905235,2.518400582917499,33.52569962827284,-9.341424544258032,-45.466748123190655,-69.82810078181603,-67.73327596652159,-78.59598194043986,-70.56738833016425,-28.93580400452552,41.78079040306202,21.947179972190114,-4.430774910707228,-32.776157564477714,-44.3462395283121,-53.48203341396259,-62.085513514459734,-52.32677479250516,3.470292918629359,30.00920021598836,-0.553524720886017,-19.09374536298527,-29.069638379871403,-41.47467187719943,-43.55938989927375,-28.602548937321668,47.647142615743476,21.788515979180467,2.300802332971184,-4.751202732673148,-24.94987286611101,-31.012440228091574,-17.043584376176454,37.36942152974957,4.65470933887519,119.48326502387532,28.64059119457519
-119.87658324928435,-110.45933084191245,-71.3089712818192,-107.24049041663059,-122.91374999144645,-132.54100758001317,-122.74579700713694,-91.29663485142083,-56.00678877641562,7.700410438807129,-63.50551985358779,-95.39293838945306,-117.39083849000946,-95.27842406563403,-69.20528890829708,-20.411395592949482,43.95027369297909,-4.076267740026228,-59.51646634499109,-93.6733631259278,-97.91809839305529,-71.21641779654766,-33.25347797270787,16.167455101060277,100.00156468128208,36.498022265355914,-15.71753336600435,-66.81179221613239,-74.8108679148502,-85.10987080123135,-57.261469870812924,-16.99514994421485,31.648428940045065,67.32541622950376,13.623245009046627,-32.240746975455984,-60.44578232826285,-76.08921186045251,-68.12428023944165,-42.7063064235266,-3.067936209737489,44.464604126549666,-8.252213555992043,-40.705033932748734,-62.6604619310881,-66.69035646154214,-67.09890954121796,-33.32675570316093,15.93707967237427,-10.898237321955957,-32.9150396535858,-49.10047644065578,-49.41852599961767,-56.80180175200316,-47.757436378289725,-9.084308356689721,-35.54512875492665,54.51523859360374,-15.7992674821622
-48.54284952941856,-25.15212369701754,-4.541575655799388,-19.974921612170455,-26.825561290432145,-35.31122584771204,-32.141534447644474,-10.656447883998577,18.84932068967928,76.06139904998616,31.507889531984876,9.631877277887135,-8.792831969233731,-9.976394829876199,4.804261708664281,31.768884433962533,105.05186001335967,74.54725852267416,33.47202748059087,13.278248400837153,-6.867964217765476,7.881933358287192,25.25839924007673,44.28343145711197,128.4898478836239,100.75890728514727,69.93671732459248,33.100008276402924,17.895950454914864,7.844734964826834,22.097342334299306,35.704085179016325,43.298768996062094,122.4756449318826,83.10914133547263,54.45619101771602,26.81061415438123,8.223036209538108,17.475238416438806,29.07059883030532,36.0832710634811,90.42243705400966,59.47050920636324,34.644820653269264,14.09019993806622,14.118255697001246,23.373868980034345,21.514869513430092,55.3546385741965,53.141768013361016,39.27057751226,17.93466822205978,27.02654286609674,13.585262755283043,3.8306434261536637,38.33132785730014,7.61576136638357,54.888791200543906,-14.68452738129972
23.559466763828617,26.805950241002197,53.6847230135384,47.14426466815936,45.34073324203828,41.188172794339906,40.08420659161986,40.40624807264885,52.06675060465936,97.3343050853766,82.73150339657096,84.8408025907555,80.50603412200854,51.389992530844076,58.32523051564719,52.76640206739259,98.7555023454225,109.24315154273091,105.29172007319838,106.94586790889787,85.7560499644745,76.33059455297374,65.02652230453964,47.86463174320871,104.74407169228272,114.77055362177228,115.20023029679128,114.92792763394914,104.02630844772045,97.14539780424224,86.99818756491067,68.880526605314,40.219763331960664,116.77994181318353,121.89558038686442,125.53957923374242,120.74458200183028,112.27275387288847,101.70497901943911,85.69939988806473,59.232162213927694,109.50689325849763,124.48187766470856,116.33023630630964,115.25715770174872,113.97049845355518,116.39926798884488,73.0807242571145,104.82613690173405,126.36375209372345,125.02957182149598,111.084336267472,113.37553394996641,96.65600957944854,72.96086263454815,89.72720855223702,71.61650420019916,64.13588444400813,11.447738380447065
50.99382849704973,55.80609899355143,67.01363526305323,61.38054125262759,57.45676722339569,57.2237532228896,62.53965078536645,63.2724555481295,71.35092467591771,67.0229564298325,70.70107069041086,85.69624967661565,90.3949159505589,60.29896003678445,79.59615532645387,55.08496286170552,48.871081251524465,81.04812799270846,92.00964607852472,107.96632887885056,104.53305857573736,100.07722254830435,76.14034062284802,36.32894653252,51.71512670226549,74.26408738161128,90.28098810914562,105.6013993345308,107.41415166379373,112.41656134984598,103.92277695782403,66.6975051247278,16.46015918709186,67.71773044518955,91.38936689401974,107.30773398007344,121.27742276527184,125.97081992351679,119.63074672292781,100.36833704015865,45.43368842486785,79.18654980146557,107.1487471870856,117.07951532867857,128.00162026526039,131.63001437945815,131.64694744308247,90.02581243025813,94.37705986942547,111.7730332314768,125.52628268339356,126.95484447304126,127.88542442068356,134.33534402884624,112.43824714118774,89.38010093013335,115.75497824406685,28.710875830648362,86.05927798441874
64.7958316559558,99.82914201587025,65.52367616456817,70.41577150902722,68.00139998559084,64.2314444209409,77.44470695878289,96.03736066061052,109.85631593534217,40.59313672018503,69.27356188200281,72.13204700404862,73.40721235518703,63.12510982126901,88.81505339620739,80.49017463987838,29.522250588069483,51.173442216649605,58.980780403213544,65.01464218996459,75.07123733838245,93.06784206653228,82.53102736727942,53.82514416195647,-1.2199703969147908,39.31323747509628,56.88932719345037,65.59640875576697,66.47619893207192,92.87832196140312,98.07146325774781,73.28504618047337,27.813554342071228,31.271154547354207,50.55098354851508,57.20977285997854,70.94077396687842,79.75210467751813,103.18448183687963,103.97679494978561,56.45917312891855,48.414981381839596,62.12962046135644,76.60342814425042,85.57175380343536,97.59500149253367,117.28270407751177,103.83206017995724,65.10809711928277,74.67143105430719,94.21608975100418,105.03368121243557,108.6486608023499,140.0929137347781,131.16385652468682,103.00134383848909,153.18167179066148,31.16977911993633,183.26932593662343
73.53976515223079,107.23798935997917,57.658500400258546,64.43441905218762,67.10162371761865,61.61680139264783,74.63076581078806,100.3016334172584,112.75119846910872,21.891622244958448,53.97752538723351,47.279426662154776,46.24077816989379,50.28768815465503,66.7340436076084,85.80272926068551,9.345098045225422,22.785538998338023,31.492541596917373,23.75840750422995,32.46600906710479,54.26390854975915,63.469566561991115,57.76361841602555,-44.1773880302547,6.548160891568347,22.82297852140656,22.988527837933866,16.136704691967648,51.421187377740495,56.64720870563225,59.966944932718846,38.13398774713849,-9.966607307010895,11.849572164837634,13.745894537462746,16.50819462007647,26.19730050273027,49.88043280011127,65.44265064782962,57.65830199810735,14.54681921182164,23.46623578998206,22.956964201577545,25.99218499016437,38.74617779496037,57.00208073321956,70.86281695450731,31.591010487817318,45.685280046023365,46.95769476540515,52.57131549233051,53.20989641121182,70.65188222543986,74.93165813318961,82.2591459138081,101.55892062964364,37.897108796430686,128.01775905331795
58.2780206189823,58.282791543427265,22.381116977150846,25.171978132237292,27.78680586543556,31.059633082491274,30.479153833043505,43.11053216281492,49.9610357970181,-29.745408343525426,-17.813294255196013,-6.340093497569152,-5.662121818077612,0.5184520065047824,1.6521445003403628,20.98211838291757,-62.58390376172891,-43.03817787269259,-27.26013920989233,-26.14208567224214,-20.428287199813,-20.217128239622113,-8.223276279897117,-4.175409630682118,-88.36685741338115,-60.876251466919854,-46.259338274389904,-43.396361387952965,-40.5415975481976,-29.864819956174053,-35.81398963022315,-24.44076737329524,-22.815452601075542,-81.62623966926591,-62.76799125280604,-57.59519608895839,-60.90225947272732,-47.9794997200495,-55.6526487662728,-43.43085836859182,-26.90235811225492,-63.11779209143481,-57.692396942268374,-65.71261108898103,-67.83531125097787,-66.55700060348478,-81.1147714084151,-52.208286456646825,-50.58368514942156,-46.03520898178052,-64.9699252813877,-73.1787778516125,-77.28089820244296,-88.33550785016902,-78.6670191807251,-51.35623752408913,-71.09906967894443,-49.6933610472209,-96.5113134029596
37.385528356132674,9.996577514018469,-11.10311225436265,-3.3467057857403315,-3.9281805991671117,3.958525606636151,-13.417019325522274,-22.708133000270145,-23.10409662398907,-77.81373408915645,-67.50818235709875,-45.211104519727826,-44.95692517339691,-40.20824784545444,-57.03810958885395,-55.712526657422416,-99.28747622184707,-95.0274928174793,-75.7606845730293,-66.38149906713176,-57.12445738017438,-85.08206863233372,-77.1861846095621,-66.5339723970319,-104.52853453365672,-107.94675439914828,-100.34388691723609,-88.27976178101902,-81.45881119714177,-96.00695358461236,-108.84545599247286,-98.7238649434037,-79.71112208097165,-124.49447157972276,-122.05174387615489,-117.81453614676687,-119.34396750751259,-112.64254176772246,-129.53783816476226,-125.29297955948824,-104.62110085053557,-123.92949845165602,-130.62318046320095,-129.6255392864174,-134.16577021911326,-147.2396525087902,-168.4113124634751,-141.5163283064441,-127.6287277106379,-142.07883400290945,-154.06811706665695,-166.31906009530573,-173.79649797643086,-185.9477705577783,-176.51122894420757,-158.8273323175639,-179.29721062829793,-117.49424899850939,-202.07440100385497
10.104821938357883,-26.715281736690248,-24.65948356079589,-17.87122016522902,-17.277414572912093,-13.592714359755762,-33.90442415801503,-59.703925384846315,-73.59951691140392,-80.27044963319437,-63.386119057338945,-59.528932236209,-51.836592472036145,-49.398010512730934,-74.48983311983386,-83.9452028535556,-67.17598811921462,-94.97030186420716,-77.23590745168804,-75.00193279082364,-64.13791580347977,-96.2888026915189,-88.07297325375484,-75.15040041945304,-69.0803473190224,-105.36731477759511,-105.2485819522671,-86.91569521782485,-93.13942874473219,-99.45347764213452,-106.8780299103586,-90.0249246523662,-68.04767588507463,-108.97642736840473,-125.2517622142681,-118.57222483578684,-114.4731254472938,-118.5095451367107,-118.544209229133,-114.782698513366,-86.57026585591468,-124.18582361846595,-134.4168335749477,-125.59832868235036,-126.06720305314627,-137.7698429163604,-134.70374934943118,-112.03189655218503,-144.60591056177873,-155.6190793202471,-153.5124682553221,-150.95190993897342,-149.47354120786343,-147.76937031851008,-133.0633347690191,-159.22793144028049,-152.29140293403808,-94.3266569878282,-108.61273362423304
-30.46506092202302,-58.52958047533808,-41.01295923081065,-41.87758928582697,-35.72374511624936,-30.30269238219859,-40.82377136586619,-68.48493338691215,-94.22111705477629,-64.86895384042009,-59.81315446767512,-64.5190051552103,-42.00065114059968,-39.52574799164738,-54.4443086884784,-70.30472493784569,-54.878073336213966,-79.39829422923737,-63.302322415655,-61.320957678393015,-51.972927177335336,-58.744650656528805,-58.33875312663125,-54.37948387380301,-26.565293200911402,-91.57859343338771,-91.7447320689414,-70.45050575907837,-70.0460439908633,-65.39321711504206,-60.83591589559313,-50.00502999790325,-39.77169081831397,-74.81177959800742,-105.49331017966267,-89.78790616470285,-79.51469966387808,-77.8696429056557,-70.94043159122168,-68.24068187191043,-39.672039858997195,-109.19587522871798,-112.66609786037728,-99.08426919091768,-90.02161870857549,-85.41274187089546,-77.6263706522646,-53.117475779883875,-132.06718196263336,-133.68994926132896,-130.28745014765036,-112.89733478657217,-92.12048266316131,-83.95648024448758,-56.974439519591634,-150.37491660887548,-124.23341192136616,-90.04105506896293,-53.33347776542717
-35.32172221850534,-42.940928268341516,-36.44559188496049,-32.94284825206824,-21.739400590393053,-11.935925524228349,-8.54703581052102,-26.035793295510018,-52.605472853046834,-26.895645652919434,-31.451729640676813,-23.269448305395187,-2.5082714811112794,8.53088987938913,8.12970161390568,-14.15896186064209,-39.419010152667994,-29.16364751861461,-22.251717554391206,-13.576737662210839,-3.3469630393526124,9.11490563810603,-1.9366466528178314,-0.4759390477538563,1.0266354626586462,-31.38896764293188,-32.63977757142946,-18.670816827250363,-0.918571908427424,-5.626034622271552,5.016338121697856,2.706428802805469,10.809176645578615,-13.35315563277506,-37.40762840084539,-20.643365593413176,-13.025866420649999,-2.3063512349804736,-0.9012749847085608,-4.503301831626711,11.944779746746406,-49.10199725111444,-45.647715812469755,-31.493644178487635,-18.96181443635016,-6.829710930202371,-11.203899512799648,3.351128962082573,-59.329686777643076,-68.8121653130819,-61.30586638469356,-44.88321119416329,-26.317191466217164,-17.023522473005933,5.2993051596650815,-92.3235339937072,-77.64350382157888,-77.11638767850016,-62.498392709435265
-10.854212334247485,-1.1061297453504775,-0.14911732796482013,10.496622507617058,18.308241392495013,25.587038528958182,39.76336211791467,31.62221086675109,9.298075389663307,32.26601589703451,29.820330367092573,38.068839052734475,39.27325499819487,56.39211955419213,59.77679718579532,40.31505316098007,25.490257930325942,44.31099323555921,33.71610867254874,41.37014288600909,47.90701014218455,56.62620305698543,47.72148623280568,51.94753561222941,24.137447508176038,58.56880372766163,52.597012202769314,47.83090887856661,58.04728814254541,50.86075149440265,56.120244443995816,58.42480554147566,73.85787391678745,54.69744336486512,59.704070890731465,65.16838009160222,65.50072934370746,69.4363747801383,66.36709244346838,59.61320621240736,66.356514750518,55.02917614705419,63.754429231266606,68.00624502080203,73.75623620475538,77.07974909355723,72.98520624396663,67.54450001044151,57.77866260905195,48.0391864422332,59.28795718347826,72.42295865939906,70.7143883417301,73.72422961201113,63.530624815031956,42.179575430938826,35.545064797390495,-0.8812517773546702,-9.356702136492176
-11.963498726496852,-3.909029641441422,20.330158311859822,24.764434356460498,16.73146813064686,21.093527470644602,29.498288152631616,22.37534573148035,5.776590006909549,55.83341853347617,51.72541414035504,40.28605384678964,26.65397960221145,31.67843559931046,25.63293554236102,14.911382599886114,66.98027321153637,58.97118073737374,40.896953224276444,40.74896474461736,31.692439650540422,34.299857861923385,29.600466437687718,23.51111243011657,37.78951312483236,73.12103107907335,68.05528799536653,51.08262021610971,46.67482970810856,45.027896273667665,40.941767500820205,43.16778689684374,47.02956937603694,61.87862400981957,82.50861180826118,69.23564521019836,70.5863440143406,67.31922475697706,60.9189783687744,51.98829220852408,42.82639179299802,86.38835994695934,90.3452322156983,85.22934978662121,86.19488231248016,81.43228946245739,77.69162970192062,60.64942424760031,88.10352030520414,90.78824511927294,94.48448663053406,104.31808533045117,97.40620474407191,88.76027050678573,56.64510233539026,92.60076350117146,85.17942778521868,38.65097209559653,44.09160234869846
-15.089759736491397,-33.685181569082545,17.123185297704495,9.024167279442231,-12.212273912064822,-14.089183106480757,-23.714428711245738,-31.031445260662622,-33.776160004082456,52.60160589128871,39.16080895989204,11.086858120123466,-8.958466194823847,-21.919178268467725,-41.02433414522023,-43.368143363886006,71.28446182053634,46.552780962754454,28.245868352655044,15.45138787967127,-10.886196982303332,-10.198345000067796,-21.82388512999505,-33.798308503741055,59.195572831230564,53.789276459138044,47.30143837517109,27.67731185206264,20.12221718761342,6.767592815342924,-0.6095111367646697,-16.817144385706133,-30.60714223329059,57.78100803135858,63.65920554003128,36.16327832080931,34.81937167708348,28.102543078515318,18.166910007273536,2.947038400740153,-26.83433508384691,62.62021774706355,50.409936430920915,42.77763835169026,41.74500943360125,37.4718200752439,23.303555059998278,-2.874014528745194,56.49543970209207,55.9508049315589,57.11864377103599,49.40636891152305,40.89064246035402,31.277015534768257,14.010272060900181,67.83110095260115,65.47385435964453,55.85072634321005,61.47236616000754
-14.172533948061728,-48.483670594240465,1.5730235597348905,-13.913210912029017,-28.105968113778435,-45.68103954566901,-59.25972213590782,-56.709714714204765,-40.60857277634971,50.88167701469892,22.730329886894694,-2.1987152720145495,-25.244489628197908,-41.609918164122234,-57.7225837070625,-44.59619665786651,66.73043754048908,54.49241361900512,30.350415948159245,9.782693582758263,-17.610318447594572,-19.75205363633801,-35.16689112286207,-32.309946631596986,75.57855910392854,66.38723602951251,51.09667250501584,29.590060031050655,21.63459277263906,-4.928691001952206,-12.619979667821504,-33.096875785904786,-39.045879356082054,76.692273580696,69.60420296035417,49.49610742649635,37.43764799041367,19.25328116999248,5.558468680913634,-11.3782996044387,-36.79954539625717,70.02566157986945,54.08238772201774,44.08837836475489,33.6226271382517,28.036590136918385,13.986142926945508,-21.323229193312297,65.71582854641188,60.83996652152558,62.96738846468204,41.041087056535204,21.591848999660858,20.379498702421472,21.36523839473035,92.52082640151777,84.95136196059855,109.6557231499819,99.32507194720091
-35.3790651622942,-36.064326885699685,-20.706543548534345,-30.413770513443588,-27.31067210561148,-50.69426093833545,-49.621423881664334,-29.983025127671493,-4.813451643589706,24.99225407010639,-1.978127552634625,-5.909097276915501,-21.172310980686902,-27.61342771969451,-25.77192050746745,-0.6857860350239573,28.539524453539652,37.36650762839231,20.874612852145095,8.492347201051228,-2.1804972482626144,-4.466153032604991,-11.36086854722052,-2.6962103414528373,39.22016359385368,47.77430973814465,40.87451924363011,25.635125137494047,22.835388799354096,6.215041008197497,-3.390262493988253,-14.554546151863292,-10.324089091710078,43.3223594576952,57.17045275988188,56.71668488335244,45.938565803643826,22.90068411826539,8.805465227654224,-1.5635595863459368,-10.649318717698936,62.904041065522875,68.72831622608932,58.21548377793822,39.98164124037761,27.046778158924813,27.555441789715694,-3.823024081636703,65.93877212408364,84.38787245169291,76.23537551057507,62.01029307628394,43.374621342327494,41.10507627502887,37.25007859287169,101.13132963036588,88.74967593879418,98.10188589942757,93.05740640560933
-19.96824441712402,25.87470478555313,-8.511978088841067,0.7443884377896808,12.334305922319762,6.759557992881605,19.6396662280303,46.5640182866306,64.54260206761461,-1.0087910259377004,10.149020152959753,26.011819448710447,30.33611965411415,37.42156361000714,44.708062443040006,57.493393048825354,-6.295630156761668,19.876689370291885,33.89285033132636,35.76457324450057,43.11592123495252,37.954702168991545,40.8610812112531,32.217722773587305,-12.049990770797361,10.762140604395476,32.939393618477055,37.60466369950642,42.008659176601434,43.14472857337195,37.89102336054637,25.75901749836976,13.587291938102632,-6.370650768586633,40.33304758247397,52.22027822080639,50.09772767419946,38.769282997622966,33.32494547778127,35.02454098697403,21.297308599824348,33.433009578727045,64.27623806501641,58.50528993207202,46.395855482745134,31.847512812017904,39.700058701110386,22.820860184620713,43.12301684287951,83.99235347351711,70.25461239063111,63.90237072720909,54.61234982869856,39.21661407060424,27.493951599166557,65.40251121635555,42.95100577754827,31.2093495033255,16.68301078831715
31.876402736707227,81.1386071999175,18.777386856122284,41.88642481463831,54.56693921090151,67.47097291471316,78.8429746687786,95.53579908419806,100.35677644767281,-7.112069639015766,39.62544813217777,64.27736578763952,85.09445547020789,98.54133880666691,99.89690862895937,96.0186511328964,-15.588103924960707,18.919874407231006,56.453610416334485,69.8716664104548,88.20552078246524,79.47385290468166,86.83260007582977,71.8314452788575,-28.823276183839933,-2.7776512392307593,30.993145384822352,56.63372075616165,61.95996436269144,75.24507266382321,80.79510826184601,77.73628551078178,54.142578873041224,-8.819984601973577,27.373993767733197,47.38124122015289,49.97390125030779,53.91309251240534,63.19729473526859,84.53291758104085,70.57543257100772,15.702807482777393,45.41791345034913,48.68575951520184,49.347806265239136,48.281091261801784,56.66137810665723,65.48622385083011,39.26858962212409,60.31101450057028,55.89949261379583,48.73175335584163,50.03792750689028,34.27757002752382,30.50022706554927,43.42007911024789,14.151590923704786,19.672782580357563,-31.028188879832697
18.866632841159706,44.097958900349894,-6.437142415624383,9.250795568476782,21.9938237529993,32.795985697835825,36.84913202573989,38.506188895708604,40.36259221282908,-40.76493371306862,-8.75908076147984,17.021571479028296,38.92957613167647,44.438521344099414,55.61421824749655,56.47257588183309,-53.565623242931125,-38.02925231091091,-7.1591073901135935,14.832747958378228,37.58942204240904,41.87820053959432,54.29771757444347,54.57569070011899,-43.46021271828481,-48.34915968414003,-36.83289077273053,-10.701799706793999,-2.8096286995397426,24.919944049198186,39.03408854919846,61.637994255905184,57.64620703470415,-34.04917153174078,-52.66043152638015,-37.47762827751914,-25.82058404831071,-4.480232406602649,21.00731059974145,55.87681031382411,66.83825176101715,-42.99843271724876,-45.46077128283811,-35.0619755411837,-21.889479837149395,-2.235416191690488,12.442064737455622,58.26823577158361,-16.99350178888811,-43.563151086227734,-38.599701952246484,-37.42482061743224,-13.4722664655159,-1.3343311902943995,10.429815869739492,-43.79680800246151,-43.85981154205745,-22.828936127221198,-57.700157942002754
-26.107530879750957,-15.059703148724019,-38.2628413861657,-43.516991482849015,-33.35402048083377,-31.02574512305045,-30.98022765874134,-36.2193349704915,-28.590747880947358,-70.58364880461617,-77.1290113723266,-62.526750828037606,-48.57185291959537,-53.20114243150922,-28.64664635564855,-23.863237515769995,-72.31714028358044,-94.60238956221463,-94.03767115983358,-73.5985691439974,-58.79172284066395,-38.4313682507818,-21.20059421858557,-16.310268167563095,-51.34401471506345,-86.74981186519398,-103.74977523348565,-100.27396382782115,-93.58234214993138,-62.03223440879794,-41.717636005206046,-18.490816158679774,-4.077410618468665,-68.82940736975627,-122.60470691062055,-135.81067338737876,-122.07097641529835,-89.48566323882011,-56.35290349924806,-36.64530042890735,-13.30186213242299,-106.1750675855582,-142.03050146547315,-138.98553508596552,-117.05687007328066,-87.71031090683847,-75.5400833633305,-21.74677938925512,-112.36888265993969,-160.81934958518644,-154.1610649810151,-140.7765233505614,-109.07608998260582,-78.09477671901931,-61.459512377113015,-173.99741519373788,-134.48029180625878,-138.58116318099647,-104.15372666451904
5.742733795470934,2.8704425271833656,-4.165655872414641,-21.689777489022326,-16.84240731141572,-13.050831817951684,-14.827229795488915,-20.18563503389752,-16.53181121150412,-25.412020226986698,-45.73351688057956,-49.25516808846463,-43.72514099676003,-52.29589938770158,-35.56125450803302,-43.55768864010869,-7.7281068616762605,-42.8310004558022,-67.65029270785399,-61.130382273367985,-60.77025631331723,-50.82278129053098,-38.4826573983774,-42.69296273871498,-6.788021923066012,-29.455100081883238,-56.21662609079655,-67.3936884000036,-74.51508397855697,-66.7128586736343,-50.01571768359908,-49.623902580274105,-41.02116886722288,-17.503599954571744,-61.26224403511268,-91.60797800495553,-91.98599318048335,-76.06442188323727,-60.93355664319162,-71.83470881052241,-58.89325689731726,-60.496449600437444,-97.15811757282236,-108.01164249534963,-92.07596337115088,-75.37633198972101,-80.31041861015375,-69.36126688287922,-93.72133872250637,-116.45397388714298,-116.1221581367898,-102.36437036340206,-98.22731363400922,-90.21450297941502,-87.54112410346747,-134.76644641107976,-95.93193324658245,-129.75493332335463,-68.9958213243901
58.598481839543,36.305751560064515,39.270815012696275,27.05143036779377,20.670187596343307,25.63649882947219,19.03822560609347,16.478087336573203,10.922830237683684,35.12542635698583,21.683065166987433,7.805228419028456,-2.2850622560923846,-15.449372683096541,-6.752039522012286,-13.462315442217337,50.645737341959205,30.9804484340385,6.11634745809381,-8.094376668824601,-12.074101910479241,-24.407789042374265,-16.36708517665209,-12.012627334853308,51.673030376117026,44.466915371729414,20.78821160849826,11.095089395380416,-6.361346287295609,-20.337705670777172,-20.583377855791916,-19.496208584919735,-18.520785122312216,59.43580183626047,28.621563632826806,12.997842168328813,1.975369819289316,-8.027189392242295,-20.016993912904866,-39.49310047075804,-26.88398409455293,33.957319592036654,16.096456742136123,6.214918589664187,2.9763248077698243,-2.120453798040341,-6.2238973196098755,-35.27888323874912,19.48639955587457,28.331965881591216,22.803042597154633,28.43821622929741,12.847811258096016,0.606554801927718,-12.499673227500717,54.270601018632775,67.4129137248574,50.292385077039555,80.4342997692452
13.333587073873296,-6.100912337031518,9.997465406922977,-0.007953101075415248,-21.976867326993926,-23.971291590300694,-30.095241489756383,-26.858833581181337,-24.500544865290376,15.53282868981913,-1.9318205934703618,-24.922340704084018,-50.62921370800913,-60.86597093857134,-43.98813435551578,-26.409756860156374,22.486153967356515,7.9977716068375075,-14.21022604834808,-43.16409600276682,-46.978727202679835,-57.50548376416859,-39.94130988351019,-14.695134002848313,41.408458312410986,25.516706367037152,3.6486766980697913,-15.37995921279103,-31.346986448522024,-34.39564117951585,-40.087037032688755,-21.944134630404477,-16.052772791428428,43.84763593599983,12.4205582019035,13.199936612919057,-3.4486327839757145,-14.8198200312493,-25.752444738764147,-27.316897209525642,-9.309352270009803,37.10942538667024,27.309671525683225,26.42911875817167,9.867194405658019,-1.053025378394075,19.694606870208453,-5.623975054214867,55.178450036160626,65.56351373333143,66.41526279441607,63.86778496361175,57.403612866811855,61.37474836027177,55.90981329350216,136.7367179372908,132.60123598707753,164.5164806002931,170.37963579283866
-74.88727404547234,-79.95707808068957,-52.80593995578461,-74.35611712340426,-97.9319639092187,-104.45975073143568,-99.76786120932718,-92.30563693849018,-79.72223441720178,-49.17306900501627,-77.01493831587973,-105.88655703508994,-126.00801854494618,-122.15481681803493,-104.96360404921377,-81.3429738789637,-42.367685400954855,-58.507448802347014,-85.05943042987451,-105.67796604852543,-118.24557603406757,-105.5996926852578,-91.19449018346334,-68.15812186914727,-33.27479762245761,-51.13932997493467,-61.99628572682264,-85.591975225596,-94.11868105370601,-83.46846363394175,-81.95918529369317,-71.45628530692318,-61.1681532213302,-48.6376173044587,-56.99487657179159,-46.6398178591219,-64.7075751998085,-69.77090244096885,-66.63391854099737,-56.32560463735469,-50.5733377429635,-39.460089696988405,-38.251364529722736,-33.1819431843502,-50.05628659325035,-55.64594031911891,-30.5609461393445,-38.47827068364738,-11.344947443991815,-5.249300617615143,-0.05397094017822468,-5.159753534039545,-6.505167905643681,6.447017978518467,24.69080057218315,49.29364347199217,37.0926720166394,93.19171781964415,87.73812372451984
-61.70621539754435,-78.33145458920646,-49.08243427573578,-65.4515387643824,-74.87929016726088,-78.34615875961026,-70.81866827187795,-67.92616372563374,-68.92465901623095,-57.99832824097045,-69.3334857720823,-80.63867467204881,-83.56273302664746,-74.37493991532014,-77.77287326683214,-79.81023511389489,-64.94549430658094,-64.09836658208373,-65.14096032409961,-67.13263927862465,-85.54562406880146,-62.96577503238133,-80.59332369948945,-80.00985839568705,-82.53673923322604,-84.8795092136668,-67.12823117045855,-64.33826572107529,-58.79633524884962,-62.7262961057855,-72.64957417085552,-82.83498834390787,-76.25178163021096,-112.81219918591876,-71.43961813000566,-49.725849818120416,-47.48689448895579,-59.3405333952213,-66.22218711339382,-66.55455231698716,-75.71358927417003,-83.95060480090339,-56.250175955594,-40.122086187210925,-53.11480333072542,-64.0334265432395,-71.42746959571664,-71.11384265832089,-68.33299242876043,-53.42428155568506,-56.67759702802919,-59.80021353516868,-68.78829997665744,-70.99894901425367,-47.051597341252005,-60.039224480529384,-75.47504861361071,-37.7536380819155,-65.96840610614574
22.749211416667833,-9.731461712192115,16.072063250328746,28.4641566544406,26.790484190953617,27.43906058390906,23.782841198437186,12.755420869506132,-5.338345618800048,1.0488156321119746,21.467739880524224,33.64345836055912,40.91693538350019,47.30652537560562,16.188711647296827,-5.195507905245334,-27.333112594478358,-3.5710674510547085,34.76621344510984,36.68873191877428,26.69323616843594,34.80316624302732,-4.099541634425549,-16.325709012538262,-58.22945343132375,-35.40168769684624,-0.5036327714089994,21.285932100571678,36.6003466936569,16.64363492439384,-9.03070848275239,-22.636119208017625,-23.15626619408437,-82.6698135732671,-15.204414548553277,2.651791057406678,21.95398225629086,10.842483568526966,-11.058424776777963,-22.195571941706376,-32.36804162894643,-48.492866079426946,-10.8170223346322,7.096984807698025,0.03592805210606009,-16.175962680562357,-53.88907810896153,-39.26564317430394,-62.92057361475112,-48.75688665214295,-55.26375803415118,-60.75517687784445,-69.6393390873554,-78.25280622128724,-73.17397968864552,-111.06978031721083,-130.41881586948398,-122.0560509623302,-167.2626527875645
61.043423154241,38.369837820526556,69.40591825538527,94.26071500188755,94.16554030607391,93.88800744344098,84.54326915111793,59.557351712928835,39.873324333226556,72.50817505984583,100.01838176182983,112.3023240313189,124.20869094802661,131.07435304916925,86.51612035158118,65.65857072167098,36.3967775822516,76.77392719101202,111.29352249512006,114.95559809610047,111.18676679473197,105.6583214732922,75.80828059332009,61.11787392498978,6.870461276017728,57.56380796953803,85.32524726809521,94.82783785956451,103.8933433166305,88.93141992559569,75.81978995549596,63.32819730552087,54.25504606437225,10.512865963832104,70.514203984519,74.51707946127115,77.97774884474578,79.19765798308546,66.11621560971048,60.76213405706599,47.966418735453715,36.494147393995576,59.666710710436305,53.66679021964937,58.46963501507554,52.40579197008961,15.806584674367446,43.52002943742616,-5.053479031660171,-3.09522229024439,-5.087874780675325,-12.921709375050927,-10.913410948416157,-17.931891300297657,-28.548504037955478,-96.37846461588299,-116.36613711775614,-135.7986302650046,-166.5961243119437
86.4300168945368,79.81460117063776,108.8609053358746,127.97364099773861,138.30130361584747,135.4377886635807,127.72950598294342,104.8618958200262,83.37713352392659,126.43014047586021,152.65886055889837,159.4974584898689,166.91194691660405,166.48630964652745,138.75550955309274,118.91523763089006,96.94417403568056,144.71019072151387,160.50916168480805,174.0581879236034,169.06940811135632,160.3000421139029,142.998420046145,123.05591355370257,70.25704538147262,132.76346217080948,155.49816010578647,160.82276692380722,163.82331669521798,157.4725888188191,160.36055961144848,141.63641777379655,125.10581975721021,99.25557938286366,146.7569916767731,150.20303425077333,144.79241415935257,149.9224389436318,150.94447877836137,149.59591436536505,128.9092331978169,121.056466581719,136.46080175436575,117.53174182679884,132.60079336486467,136.05689523177068,120.42965929624417,135.1320216026915,75.80628836288335,78.35964342580115,81.54168709613543,85.42211350380231,95.5424986733639,88.20362184925584,75.21523449587856,-4.420452860704021,3.422560828702707,-71.35532819774684,-44.356550865544925
106.01880543256729,115.2376907389424,101.21972264444952,123.84213511157651,144.56537391812122,147.16047279180955,136.96141473790334,133.44055857402708,115.77693582708628,108.84512268190335,144.72364065913254,156.2723617807382,156.89397019466423,147.8843892166698,146.10829401731817,132.9288558165594,108.6078191929326,130.24364071564975,153.2391942796491,165.29933440805212,172.88889937841728,155.5336544341829,148.9686857638374,129.5414405385007,89.75818514077312,126.73910322429566,142.40533988871837,160.85211772960497,167.705599013214,166.93371255584174,162.7409879145427,149.4168679161041,135.84810033101851,134.25529469176678,145.64278033673526,147.32827772036757,161.73937227433817,166.4953278643204,168.59811644641175,156.40389291850389,144.5345021264394,131.6181020065908,143.292759807856,146.45764947981772,158.64846657747523,162.63607780264914,166.53370913009454,149.7266267854398,102.94325497393359,110.63768812575388,125.43411308233424,144.2438164927387,151.84397297835545,150.38478343476675,134.4460827868907,89.62739583273444,138.15284563661336,1.9944564779614993,103.40358614280855
13.77200601181175,37.21369801921534,-12.988211229557809,3.710380800313489,20.159844349691664,27.660264708846192,19.507073475230563,29.099387316805178,33.85344920890962,-5.2205639689768475,11.70418127314132,19.17820786579857,24.911667246215256,25.458241185292586,23.040341839731234,28.534841204181102,30.889007346179703,6.520321095414548,15.80562108329606,17.87896121544798,41.42226458143122,15.199234072734537,24.83201071950809,19.366667321030516,54.46740640074755,24.68027526315143,14.320870068151704,27.340846830193875,30.684680219563276,35.61516278756093,24.61593546427901,26.58979216296824,27.659223463947143,88.54459008829078,36.25016799764307,23.149735619837717,42.013595217325935,45.879524178085354,42.49522291221358,23.42874620612392,33.67250154022248,47.58448453403292,35.78226729047435,50.12101195510317,52.962359315698684,55.37197312191124,70.19089382158093,28.69972176277893,60.12446079581451,51.00670954627152,66.73648556597598,76.8970233491217,74.4606068762314,72.8437813508144,54.116673210167605,101.26380578747577,136.39661899606585,47.92525059850847,132.92115209293155
-107.15013526636446,-90.59506817712685,-111.22526862271948,-122.87622391037218,-119.9694500758183,-123.37390922676684,-117.56662830472425,-109.02077668453839,-89.81594990606065,-87.38877584439606,-115.78237765211273,-121.51357532918726,-117.52296430873102,-105.03612261676079,-117.67984920695548,-100.05633460667731,-52.142433864776244,-89.46404786473578,-123.1250368260055,-121.50703589331223,-107.05884205779485,-129.4801144715987,-108.62541662004357,-97.60547700544082,19.776087869684783,-64.81209597789741,-93.23458554737866,-103.43791764064542,-111.86212519483591,-109.18600828845823,-107.87270776339437,-100.01143403733187,-86.74590178984398,4.281615111936108,-68.3630239695874,-88.99008507001686,-88.30855323231023,-91.49866253069538,-98.89437314469191,-103.6134742128682,-86.09958155462041,-26.754070141015248,-66.58027788869803,-72.66107661193149,-70.30530933247168,-72.28163798092525,-52.488918698080326,-91.40753008270212,33.62590123511115,-0.26976211592789934,-4.475496996949014,-16.872961288068375,-29.224129063969364,-36.63271979177803,-46.00629364624289,86.20998327609547,57.46628931355106,134.06964082431938,86.35369939750068
-109.67412534162372,-94.90914729703002,-93.37801953696804,-119.86103286274749,-122.2885736509026,-133.30890071260356,-113.05169290284013,-99.61011281665841,-83.9129478141196,-71.22317025625084,-115.33454113533199,-121.26749054260547,-127.36830992422983,-116.68156874454941,-109.42667063024706,-87.14310283018554,-55.29197262599109,-83.91009862057123,-125.40493756251061,-119.76351228907589,-114.77359697879355,-125.06843297022597,-95.41747972051361,-75.07510161444154,-5.03414532214247,-67.63847202624756,-96.03235096681121,-113.91950734526758,-120.73794142265237,-118.16196408282283,-95.95763504768405,-81.99299803314403,-68.80945445741875,-48.22720909298268,-86.78605741743334,-102.23995446833146,-106.72193657229234,-107.00959968981778,-103.47040684548465,-81.68803000288213,-71.96401455115449,-43.182376778721746,-86.24261951454935,-99.04956236142739,-92.40147717811752,-90.03321649169062,-68.99505728941642,-69.13414663495261,19.81245079243576,-9.684642876456369,-21.595222635496256,-34.95515691730318,-43.28499155934243,-39.971118861086474,-30.045472484067112,79.6400256037091,27.638144405132778,196.71873655345377,71.07260907571981
-83.14263457028703,-43.69906060629173,-82.28283982204518,-98.0101673694737,-93.00702821901508,-90.32985260617633,-65.98460403944091,-42.0587505583854,-23.154472427669045,-71.3060926126038,-104.6193795834684,-97.1082479812942,-93.69662167962673,-88.24205145363246,-46.311978524232515,-21.922289307335138,-48.19442935914075,-83.80596227750377,-102.65973357370979,-94.63476151582512,-78.4041716736108,-68.48440419322468,-31.763364766084372,-11.919204491465925,-53.73977333007571,-61.229264054740426,-92.71408542585647,-99.67647086006079,-92.56797835274958,-80.68106615190158,-45.60247971838183,-20.477078491156252,-14.827589820443926,-66.69635427448496,-88.90390794057686,-95.76192182635592,-95.92843911104794,-85.92243197381161,-59.552299168667105,-22.594856131705757,-18.854589374285705,-68.33314176382929,-91.55863845613685,-91.29384550225443,-88.20948518498489,-69.71149967376195,-53.43770725583714,-13.28551145715215,-39.687086004526975,-39.84449353646733,-45.09446352327315,-46.54044929726848,-34.65177204702062,-20.921071498193125,3.326881293940591,18.51334101145636,-2.4839522309090913,116.51421202973289,37.62503837677693
-77.04528309549141,-37.75889077202797,-91.92315484226827,-93.97464107975061,-90.1692174826999,-77.68926033040522,-62.8784113229235,-44.88334450647211,-22.80672964470382,-92.17977165271762,-113.2084317783509,-98.82059199595345,-86.39430065213585,-88.10378701659522,-43.75397832226717,-33.0022106571808,-70.55572051448827,-97.66847221238488,-106.25324957302584,-100.30202378231095,-88.09948950219288,-61.37807895331608,-39.35747354285992,-27.98139191731709,-83.9326907451416,-77.6930628995818,-100.33974738773152,-100.11317574242338,-88.91222733975164,-82.48277090893922,-56.22957204141222,-37.02072844118186,-36.96916405350518,-74.90129178237936,-98.33691583969147,-93.45338062948967,-100.00451854072308,-96.50416558462794,-69.9290456014845,-43.5718537011272,-43.89941580895869,-95.66545834506795,-96.3564613311518,-100.0140257841162,-101.38418358789465,-84.53308026726273,-82.4470185454598,-44.413739426533226,-97.88997556328431,-79.14675594399517,-89.45034143801062,-94.80075037208235,-77.67553865428087,-73.32156923703198,-52.32298801504697,-84.28615072271015,-90.21469831504555,-29.54553091943108,-69.99118453883644
5.666945614888967,2.9052386154085834,-6.921553597068071,-0.5360121044730768,-13.4500146854746,-9.545518874904156,-12.128838018817738,-14.876743832987696,-8.339477110790284,-40.42322217866709,-33.573333084168794,-28.05298972162941,-29.225108447784987,-43.099101430900305,-29.991072150487383,-39.02081525245113,-62.78487046170327,-47.24329140481576,-39.875019367531046,-46.43645214753964,-56.99379787091917,-38.24298844800665,-47.674362159475095,-46.43661502236807,-73.42484542658164,-62.496393430370404,-51.77556376189759,-51.7756975561353,-48.201030528481205,-59.24232689697714,-59.157642190587936,-60.34285024454593,-60.62589298958389,-79.05901207087506,-73.1480053993657,-56.41316349539848,-68.85737951371993,-71.51995450588416,-69.67026260436168,-70.43631902162679,-72.81959593742445,-89.09754464831978,-72.36053291596616,-80.40734843199566,-78.51713155586931,-80.70479883048489,-96.78826868207537,-84.43266875382432,-128.60633930743833,-104.82445514355462,-110.75034456814353,-114.29276249895935,-115.7326368888329,-117.50321057383809,-114.87862840649423,-159.4165871722752,-151.7462096304364,-160.0208168327278,-161.83519406124998
104.09946513909553,66.85236075322163,95.82127095470672,103.5243358125361,85.0111009827623,81.41712407638228,64.75863879714541,47.07338814791164,35.893845606799275,36.7348535760441,71.54921876921942,66.1714529335397,57.69879870822312,36.595370168262065,22.979858475080157,5.318346457638221,-18.90916262544622,26.220933217041182,58.39851269258517,42.91308656238933,23.944531816902625,28.457089740916796,-5.897447385261355,-17.505111887424363,-56.244583238144195,-14.245621043216179,22.293050631714948,24.708759886929446,21.329635629657254,9.3895309965116,-12.737041900995138,-29.558110441947882,-34.28806219989265,-64.47991230103766,-18.38299337676252,6.04866033311975,-0.8986788998636932,3.245902643228394,-10.167352816222579,-35.82396744526844,-40.53024559399291,-58.10047782777956,-23.919380619578533,-11.515122951536526,-12.331874481090374,-21.1809842069076,-44.301927803491864,-51.88767798589889,-124.34819829825,-92.38971641707715,-77.48120323588628,-59.39295059832713,-65.28003767482639,-63.6918589042437,-82.38138320507073,-156.32843172094687,-100.27265196072315,-246.94515934572496,-129.97925886741308
109.07663651779282,61.55447952637331,111.52532680071948,111.41970888965437,101.90740453617258,96.66250266010013,72.40649895020472,55.01449341650604,35.97494930857948,80.55547606750491,109.77694697205189,100.28479000571107,92.07168555932272,75.30457365462843,53.02720405073279,28.158740314066186,41.884129556848094,82.13058504398552,106.16225916585898,97.11889298847058,74.8691468034234,80.3746189361365,33.45534501903738,8.759673242359908,-1.4329148432746415,51.72940185529548,87.8807981092974,90.91732133687037,80.1422148332291,75.31576001795415,43.62014970716312,15.062393413546893,-2.6139032826343946,8.850285794717209,63.95476062866155,87.5187351933194,84.19849314118679,80.43747845057183,62.5892712559391,26.817209926346056,7.147767052690588,27.7624525079393,69.54513681592772,90.62786402322001,75.52321009676254,64.37220109749158,50.3159235441789,20.782183021494646,-11.155117701556115,17.665618809306608,28.50667626194569,49.263586368345976,51.19694313017407,48.94307545393859,20.500464459752582,-42.689043745715864,17.66859673171347,-169.91927899013353,-12.765257530426517
58.229085805782404,17.1357960960976,77.16135027748271,68.42671330479573,62.08066654211498,57.115347675982406,36.71202538855631,28.69963665334872,6.689884243067499,91.11495705328505,97.02653095462423,81.06745123648295,64.74461159366386,62.102624499753155,44.49462355483011,19.43494647882534,91.9891642829993,106.23182474080093,96.57076240229742,93.17373960838296,70.35479812836599,76.35797786103255,41.06630188995501,19.988715647247595,77.51306891268189,97.95121036878824,111.95999009364522,107.32821103073786,90.73215053933986,94.22615664393899,66.27319480588793,38.44366897936476,18.64337500573076,94.90273841385203,120.02371598687819,123.47934785511995,116.58464233389171,103.55757429984581,85.15931497128301,63.90760372959111,33.90300191892445,116.1059547916044,135.22856997830868,137.4636542075296,117.88916611292694,102.06827410449358,100.87177963703192,68.00048507858008,122.57024623230083,120.6799109349381,110.35012256623263,109.45859861884732,102.43070800246504,97.34531740347373,88.15855449002521,79.53648987783637,70.85713340033652,24.016253891343226,49.327280475055495
-15.801395029845441,-24.5767686175584,4.766708913648706,-6.527622788144605,-9.53578615412735,-5.062464206471724,-5.07093772133263,-4.649529613596638,-16.54410892602899,34.59448131698355,24.09950936249541,5.116017966031773,-5.398464420802494,8.024216512211929,11.97614094008155,9.564902266175395,68.94697835665794,46.11181321393319,21.851713985530573,15.39233075713247,17.42610134771667,23.614500779495856,26.06090995057681,23.68565174204423,83.14627625857187,62.45567674545678,43.25627694619563,31.59131885060288,20.90307041810695,46.028138850025805,41.22360126589521,37.244147370318785,34.759419598972286,90.35950117057007,72.27631388117351,43.80388315160808,39.959436337804284,43.82077291061387,44.333057485308636,53.70855924333574,47.19197543773987,90.69905359334591,70.61105420756641,61.79108511576065,54.5987061672461,52.58391524796283,60.7835406089131,64.10608447161334,114.41036482173924,81.69368722032023,70.46527485905261,59.51262004880205,49.100453335466234,52.918490966988095,78.28364023315163,91.14514356648054,45.471893710054616,121.54506944760935,50.85297018591446
-75.02162852287611,-45.30989594370229,-61.10804457426089,-65.46520612078248,-59.400604532844596,-49.90021513761582,-33.29205961672476,-27.26159628796372,-18.671367172879236,-26.600588230526377,-43.74610882172695,-51.83292285512718,-47.04897387325529,-29.406946853571974,-10.17580562889125,13.721178468159604,16.398893637234828,-17.86926900842442,-35.02263298049246,-45.17112952198325,-25.011532387279097,-13.089359012121992,16.669164667610072,29.160935844388966,50.11501063998706,13.937932258619854,-16.708974202103647,-30.735070226689942,-34.605435321498426,-6.848970795889967,15.989079531219204,37.36733214051096,51.31967318013992,48.42062997553743,22.301553204636278,-22.94025411593641,-21.34377718229768,-12.297829220999304,7.845283979326208,32.57710485052097,62.22968372032011,44.43783742529344,5.936437131444913,-8.163149050069034,-8.965353656433843,3.4337106013066787,21.14971379087226,49.29399021386626,76.97942161607818,39.46868660160614,31.401311101876495,20.00721842463292,19.63475440522852,33.44862928060702,61.11900924107833,87.58452506424487,60.25977105364902,145.98551840235154,101.09295976930643
-45.61266145355446,-16.546613244783558,-34.345374944365005,-27.56219725662355,-21.271255008483763,-28.803789124341538,-17.91684982788322,-8.781143368883711,7.430807664572139,-1.2759755431427209,-11.409154030539925,-12.989148467915598,-13.541159678004384,-7.868552264166823,-1.0862650990565061,30.618312924323476,16.402678390172838,10.80223720827465,2.477417071304176,-9.399259641113899,-12.142090235050194,-8.788143732476925,22.060093599566596,45.217698115898756,54.26978507330437,28.762609183096586,17.994059306545225,1.6128629587766348,-5.736680048010136,-12.872659716297747,12.368904740744227,43.73622144203257,65.29470925818345,51.93010485591663,50.738896362381126,14.528276184173672,8.143273754447993,-7.497953881738649,4.821132026277773,20.70442237835136,62.72380019077933,73.71031351751635,41.97170932603533,14.283647933265039,6.165589388414869,7.497822955280501,29.553566282863333,41.25500353900661,113.79351211600745,84.28279540424842,71.30441997536495,53.45077984532102,45.98086547734849,56.44037423942801,57.683784348392344,130.14052103627768,101.6855915594787,181.49094641215993,131.31890937333753
13.083692215444668,9.296098609107855,12.369382526722855,19.99670734753307,22.544662196642264,1.8374195150097634,2.986125379027923,8.146627205194472,16.81878043727084,16.248879369914786,23.140531985336338,20.1162585510689,12.431944188518578,5.3246697188866925,2.007377201076544,22.785100680839314,3.3899865401890033,16.8446131229998,22.14911593920062,18.981132058569205,-3.4684652559586837,-14.658083035125802,10.492085349731486,35.45244246045847,22.415074338951825,11.562724816271595,18.487657312952372,13.286182140259623,9.635289407062906,-15.339523547617295,-6.727573512019731,20.1776730607486,43.889612239511266,16.92202482400132,23.50980325244113,16.923762238322652,9.153577681481398,-12.101577706564655,-11.117794028383509,-6.116180488292443,25.67364930315576,40.05806350244757,24.81823537415581,9.208140255966459,1.7335503622382262,-5.212630797689464,5.055319552215774,6.269864183465177,66.86037021159618,50.53054606784363,50.14644826627031,34.50603944008789,21.91230016713999,14.212654673613889,11.768536101892334,85.60044692358518,51.17914082992801,122.08554914439726,34.046298514581615
22.163546357866537,8.11595145722919,6.127857133628153,9.54574650915858,16.50767412106365,11.175344923460024,14.683651827094652,11.745737130191209,12.312959052602704,-21.470960341937154,-2.3315356871446014,9.630306014827797,15.63679848425787,13.60022813320821,9.61522477806194,7.488881133156534,-46.14148382614687,-34.918111943104975,-8.715303420567372,8.94327721506336,3.805354856804385,-8.060948947198973,6.281760325856332,10.798417929055912,-52.76232593256119,-49.21813770842014,-34.80757590855953,-8.298007880643041,4.941231176667456,-6.312412490639948,-4.019229893870083,1.4133742459801049,11.69356842988471,-61.093939584861914,-59.609368135297736,-27.596299629040825,-13.019538765071882,-10.89157709175288,-10.110603614784447,-8.470291771250363,1.5089202373037516,-64.65827459472177,-52.658794189412454,-30.9636568184938,-21.324826620394198,-17.449530222141554,-27.33139123417346,-16.28937353585765,-69.83544277632711,-59.99365295762511,-36.16709972844889,-33.07681535870411,-26.28747651931957,-44.23794699226283,-37.9279865062031,-39.84229382271573,-34.25272083378999,-15.018383231781044,-56.09534992766672
37.83253712367719,43.67693192316274,20.779714455706475,28.811182386381223,39.63732945680849,51.68424415225029,57.05800768843831,51.025067959552764,45.05134787090675,-2.207128723663711,13.604488422346742,42.986314714281846,61.04892905672291,73.62819225335718,55.36867176015103,37.065812836179774,-29.74784763820419,-11.602079814876323,21.157414010649603,48.161041745222,62.5316178649637,46.159906511097475,45.63275104287812,30.57787619283501,-53.026393401484086,-30.32973445879118,-8.5245077427177,33.24601043147496,56.06393019648992,45.56347208250716,48.304221643281345,33.78310028023324,21.878618642224613,-54.11123831589303,-44.13445686949148,5.342859192501789,32.62928696353138,47.123075921934976,39.09535825865578,39.59897537759156,22.114160189349022,-72.70171570719839,-35.42578095734446,-3.908446327264272,19.985725427883008,26.781246178708024,8.336637539949692,13.219163872900024,-111.61480693234105,-80.3032907078949,-50.50246066347998,-29.936759485422154,-12.545640551126045,-20.41698263269204,-34.927845576609556,-100.62154290319485,-50.446592414865805,-96.87592137616191,-59.13032842091956
58.52528153956473,73.75026268961821,39.68403721102392,52.441374246708264,60.23970608897878,70.47444840800105,71.24875641249167,68.43917335997277,59.745790006038064,34.28422992101535,35.92914006141109,54.50419774282712,69.29367730888441,80.81795480615062,61.91227508784752,45.414857088332425,12.715632016913235,27.653142364984706,43.04879376671904,60.7563098146029,77.64498456182334,53.93212933944578,46.72777787203262,33.797464470668004,-15.073800686719764,11.165752723996853,25.118825250951964,45.821380063838085,65.46139094912519,56.03901146660566,47.24181508529421,31.63624137887024,11.42160639799131,-14.94690266282303,-4.3913669606550805,26.375695157089634,44.04941706829277,57.172262069115106,42.37464072247237,40.702090978288574,5.078760295865033,-39.321661621534126,-5.469361896590598,10.529591002517252,36.95110264052571,35.836097322907385,20.10682439994539,6.946965909314658,-88.92091079715692,-58.171131419912584,-38.96482296427783,-15.622427755891291,-4.883627347952489,-8.332744144214587,-41.045546005329186,-109.72642781984744,-61.467617655086755,-159.67953305624349,-90.23662246401197
8.451903152480028,20.702099381934982,-17.15241415943743,-9.132930393329081,-7.661723655689439,0.5149644901568404,0.5331252258338699,2.558264145933215,0.7658345689447472,-24.633967676935363,-31.77760703812785,-32.651463287359235,-20.85739602057052,-18.72091447327375,-17.88724225629717,-27.10158759702674,-26.500726745369633,-38.940759660170784,-44.87622013614826,-34.453448996278084,-10.996550679064208,-21.306748151664447,-36.396771722863065,-50.14465360234314,-45.303004083507176,-38.1217543756325,-46.331375197236454,-45.07313327822503,-31.677896514668838,-13.943178011125843,-33.22679928635025,-52.668479948075344,-70.79780977034565,-54.663746286321576,-62.608444819754574,-56.37710084111879,-41.066738154368736,-22.714515286412116,-26.722942107461538,-38.52482796785949,-71.49851283250405,-80.25902215072934,-69.118903728166,-59.068945010802665,-31.412599052623335,-32.528426047150624,-46.80455147709867,-61.51989277281876,-106.06896275019184,-85.61447275276262,-78.3043588353882,-59.92462309797783,-51.390667100168244,-58.27002017428711,-65.07119263539168,-116.31070683990384,-93.19059461896569,-202.8502410137943,-101.34336665016878
-65.11736250816806,-50.3754153775004,-78.65869821179172,-81.28068744282146,-85.36242646455207,-74.72733507270085,-72.01811172104756,-68.78391515617395,-64.92265566757325,-88.92839867127608,-102.39809064609045,-105.05677948708232,-91.6247425872022,-84.3502139906225,-89.38782100066013,-93.65195761117343,-71.24619361592681,-101.70174301176112,-118.67867893162482,-112.57802565188575,-83.88678027591445,-75.1755048224856,-102.44758152368995,-122.43559641896411,-69.8934215357788,-84.42894687576214,-106.16565803196116,-106.84607700443979,-100.30174592866854,-73.87697625347815,-85.67863833948664,-112.0986590776246,-126.68832881871899,-77.84346549739428,-104.16856540870896,-107.14546413290444,-94.62628907768263,-74.96573485105446,-71.8441511365456,-95.05705085236315,-108.02281685783817,-92.33621943323222,-99.92406641152144,-95.924563059617,-75.80108065436555,-72.56121617676058,-79.54753506148688,-86.25451512472387,-85.07391823825348,-80.03358009785995,-86.4490315100319,-74.05049076957252,-68.93252603686494,-59.320266322093204,-35.154139582195036,-69.49824945595113,-62.97573648812598,-109.5609224508373,-1.884220662347058
-72.37847745082395,-67.26130807350347,-63.2652457277177,-76.01057279409417,-79.00027224022332,-76.21699940729613,-78.45539737980485,-80.04017969880108,-82.56279672624757,-61.494548459523834,-84.25724343491731,-81.87390335507096,-76.60739968724135,-68.66270941840767,-87.99644213726614,-91.24318276137299,-35.20441549939485,-62.734196548089066,-79.1609976922075,-85.98209019641527,-76.01044639701172,-66.00494601984505,-92.50856133234342,-96.36728344542163,-13.701208724113217,-41.63602135053969,-64.58521680841275,-72.50624138469941,-73.83161423885525,-77.0241768393368,-81.19319807821452,-90.75213395650381,-92.45034894174796,-12.610274900095822,-47.17525198413995,-58.02760166857942,-68.15276725408526,-66.1087508882457,-68.87871027616075,-84.62127940437841,-77.98502345947817,-18.860104458296735,-41.28605665746501,-48.187323800783886,-59.073102945809715,-56.40985620856018,-46.96795007397648,-52.14411456254362,5.0000457786989365,-7.513809290897502,-30.78064818761314,-33.66749333773945,-36.39860717717217,-11.970516429063428,6.842365371380563,12.028919099333564,1.546557777903523,44.18662630021926,52.95697334884528
-26.882549958182274,-47.86872696298799,-8.67678092621782,-20.68880269734465,-22.241461418682817,-28.461523639927464,-41.54058882240784,-52.02036572508695,-59.030309621651796,1.8313449254798542,-11.764338830226084,-8.89937805619883,-22.077984450854057,-40.65191627730351,-42.30604642379034,-47.54282056931571,23.603013815589964,12.60915536840777,4.951919463962094,-11.045689875256373,-25.607234160746465,-28.281405538948068,-42.74949186358698,-24.763241788212195,45.765778840586094,26.09570195553546,14.25352129142129,-1.275566669739944,-12.39375461162309,-36.60226606584927,-46.95474160000512,-35.05538437605854,-21.891765069916453,53.16120887022031,31.470849177038144,15.204511881554682,-11.335453787165434,-31.17198873390619,-39.38665592165983,-39.019264589563946,-31.14085333948801,51.00030535742554,27.199106982862656,18.89974718446531,-22.946278174995683,-24.00634222791013,-10.47373538955152,-19.047241394038664,73.20634218159047,61.62870004397442,31.84009848747485,8.934006464648652,1.6431309738241753,8.562307910650954,5.547824538796569,70.14514593514517,39.909832839155214,112.96420270899469,16.17238067768752
6.667361591701489,-24.596617237254,26.035956235685127,22.4705529036614,13.301121315023867,9.065169922254164,-5.7588906075066895,-20.885526953465646,-18.844322785719335,38.97765704736109,46.20148538667051,45.792129930731285,23.984474123922517,-16.478719759854943,3.632586861367357,6.357762225522389,48.69381719671743,60.584193597774366,54.720779953469076,44.07825823828735,26.573042969553548,12.024488128710267,13.347010768659672,29.211135869674717,47.808161804058784,59.390812133346614,68.81651300580569,55.42877582652158,37.80018287544541,19.619391287144353,11.5220176737006,22.83813681530349,36.49352400730772,65.1234360533704,78.31453442833451,69.8442597952813,46.75906692379804,22.119420006800567,14.652669423599296,18.50651053458243,17.644292242180263,82.46939933229191,80.29005428798844,67.38775861670453,28.982668600853916,24.326947091069115,29.10799683868726,15.944739597967974,99.42983257878811,99.36577051175603,82.78122229790975,55.97642572552732,43.33528216302943,31.4216273576662,12.541071512065711,116.29909721053957,82.87340201014052,138.9687451138575,43.064997182009215
-2.1377872956383346,-14.13856106904093,13.369816865752016,11.445262663244918,0.4170549328815625,-2.273124736494463,-5.915910534477145,-7.201528608747605,2.813324815730496,28.893584196174448,35.91323890098472,29.143287404241548,14.42056743494918,-8.21302356983785,17.07876955107683,31.743097579270707,30.3817121512618,50.080642847575035,39.53646133211268,36.036702664952585,23.321886225149136,18.987672736676345,40.15916833457803,47.057722469055946,11.989286634387874,42.42078554047427,59.83701535597653,46.43262859043038,34.83257009130418,30.199036406016965,43.36143866354705,55.53229108187298,63.4989497185294,31.38424733732079,70.49405109782,66.73909076458864,50.53453104231646,36.71000253907317,39.68064811624512,51.03227142489894,51.749101195330454,72.03211934282062,83.44848900375959,63.11850177638731,52.7027180303011,47.68883779604587,53.76904041582883,45.49743999442528,96.55444346153622,94.15380346022968,92.65009240448722,76.52014726985908,62.28945290463297,53.17361244290651,29.378653507425284,122.46203164109048,97.23758568825122,146.9621719451743,77.87214381757519
-11.768055740216292,-0.10181786717182106,-7.089063397948269,-8.543426995399914,-8.249296267282794,-15.438190720571177,-6.509873205222799,15.62647516383511,22.49039765920827,2.915702606673385,5.4078452191835495,-7.633254757767837,-14.280724601956603,-3.3285977206819126,21.946062840829068,34.76692597272389,-6.1741115137643945,11.761206227244905,6.626677254947449,3.751916163276153,-11.954680948401093,11.367019970751901,43.71997789449738,51.27329816006592,-13.752373096747585,7.4672013678195945,14.624930339477718,2.7093399153899806,-1.9476502355557308,8.997202798822748,36.5086732344559,63.313088245546695,70.47068229175355,-4.5346267178839685,28.67301831164485,17.061993252826873,10.419363283881935,6.091729555421583,23.81770394547256,55.47590147371734,68.43619659272761,33.66532000663557,32.960127919132404,21.897371388399492,28.736491631014914,25.762531391674656,36.607375290815995,54.88606248447108,58.87800774021639,50.97032026841499,49.83982220236626,42.68885933849451,35.08277429657572,30.933606566458856,24.519679605202573,54.195059110576196,33.83675531240196,76.59088883365746,4.8418798058596675
16.480052772845607,28.38605431257358,21.900998549384727,24.741462904207452,28.100623236140812,17.919777065227446,31.450782875891104,52.607811004593074,56.90588343836489,23.66084478928465,36.053627219896825,16.83638529649556,12.375536713918354,29.419051770294637,46.06357620945919,55.661570245987264,-0.29988854318525426,22.858720737359544,23.0692583549732,14.71114323790598,0.590770737602039,31.108187720674835,58.816371475387506,63.61283682532367,9.84313479829477,14.119248577034153,15.447819152962381,9.351872830478683,-1.9345294059019036,18.563344576702217,41.68669028007529,69.14164386984186,73.60367302641156,13.265253382557574,23.064782985181495,6.60449796783883,7.994761974686806,5.151411351649049,25.26537450459307,57.95653627784961,81.57902527469874,23.946184965178666,15.944713315258625,13.155086059851875,15.642660211890604,12.703366634244793,14.287945519448328,59.385720022217214,13.459708145892634,5.702972832881974,5.58932578996721,4.150260976979178,0.8045668378193618,1.1525557356265397,23.775894720671694,-34.18277051744775,-40.67774812182919,-40.78713387509579,-66.62995501668405
34.08065139510439,29.743300470977715,49.08906713770737,46.90416899652729,43.515095268320906,31.962244016999534,37.59812819371106,36.48405382715143,41.88644236870824,49.02647061721213,57.144455024417894,34.138079526885235,26.89807046710791,26.429066027224,30.672272082236297,41.071236696124764,29.30084220194059,39.319299879705994,36.575184553199826,14.767309869073813,6.540221614508278,20.990254238085914,33.3134680318573,30.95739912340992,36.93713063377476,25.845447086094765,25.348997966000418,15.595885427837665,-0.9224906088823204,8.370075821407365,23.246588987680052,27.268424055076526,26.810848284244443,29.354198890114112,21.989968289197787,6.37411180942868,2.8832355951638746,2.454315876339887,13.550347048117079,20.18558994000592,40.77075327226339,12.00292163269954,7.8486443275998425,-0.2377618836494264,-3.5768028978896993,-5.921968150772143,-14.332589154489614,23.156784635133484,-37.69823903198314,-49.34362189934327,-40.41549865364982,-34.6299680761922,-34.65152080402618,-26.604503639382106,5.029843402803419,-101.58983265150087,-84.1972871030446,-132.45347604515018,-67.19535486858403
23.788009229078327,9.73129537216956,35.996449748724615,24.94088084299453,20.837801693093343,10.462819699900027,0.5625753139725838,-7.570433079602034,-7.618125478690407,31.94828631793408,22.79663794601533,5.919805699082733,-6.7341747781256736,-12.521701650611408,-18.314556748994107,-19.066905664343572,34.778829617514056,10.649695666849457,10.457526466181498,-16.267026299475432,-27.376277324839002,-21.602330917742087,-32.458487742459695,-37.541626653103364,30.872200424368398,9.47833258860545,-1.0670032505104885,-16.373705525238986,-24.630357705394655,-31.444729634420362,-26.190371724457076,-46.083137827115266,-49.517621902754904,5.722495945018373,-10.762022348752453,-26.11013185217005,-33.040586261262334,-26.528239089273722,-23.46213685463412,-40.75647383741979,-39.95058154664554,-25.693385218190507,-39.76547656483534,-44.04975478057014,-38.79935359061788,-34.84492832771525,-38.53489405463543,-37.35103783207171,-70.51126818741196,-81.92002450255882,-73.67578123149517,-57.68336169517931,-47.92231975465276,-41.519921425472745,-23.610014094550483,-105.1447935862629,-73.59805856272484,-123.2197737499352,-15.540528939505453
45.516865196122154,32.71363958809769,49.49570284569395,44.05606479099084,36.933957141702656,38.35217184528908,26.031172928145445,25.994459672536614,17.218918477540598,38.12135180377354,33.98322700920957,28.592210340266448,21.136977513109116,28.792676398153535,8.997285185226866,-2.471620595010549,50.09331859539658,17.870747399734533,20.751353239466162,16.512360815654585,6.7335295284674075,10.272128585750355,-13.536571505209462,-23.480365829000466,46.27373205237977,26.445233418353627,13.77322715057768,8.348377653715447,9.566896713381114,6.3424851239097855,-2.717978735828636,-29.38698468137491,-42.5725630960476,25.62025362154514,2.45786295454427,-3.2252274057149197,-0.7256369257618873,9.641335207309154,6.814661282443181,-20.548458114162052,-39.304694358275775,-8.19568715708053,-28.3758764196708,-20.44554323595751,-5.703001299628898,6.022145894415138,11.199156862776222,-19.203786566201455,-22.403958225589314,-27.913000094075848,-23.210158487815306,0.24566104476528317,17.928349241134704,18.715062401379377,19.905145853660077,-9.930360632624957,26.645256598119474,8.341276884178349,92.23848675501429
72.15387815196338,74.98973695264094,58.99353065621372,69.96716831333511,62.51240551416666,79.39823178726499,82.91238245797996,85.34461402506835,74.32382433159336,37.713854877451666,54.19978402271089,63.899818478574865,77.45026180726859,94.58783063217413,70.3892019653606,61.09918558921119,38.86827013823627,31.956532489897715,41.06698023159976,64.15008711263225,73.51434715980233,65.98943471743058,50.90985194841484,34.701653451348115,43.71276991061809,30.28994802511066,34.495914968087945,53.08012713924575,60.6030960006588,65.85244384068889,48.79174794230171,27.09973758345297,4.467920612155433,36.45712138700007,20.022971138778402,37.127361560341214,51.08738430175696,61.88176815155641,52.50174230299888,27.581577144504855,7.05242052277098,10.537103604507703,15.603589497566055,33.842086475788996,42.298734478748216,52.84192322003963,55.76623291431662,19.21860760401487,16.56787787682394,11.34050597544221,26.930875707847513,45.19227678370424,58.89566284580593,58.36298912663038,50.21901232979578,48.808446517672365,80.7114638996305,79.30223025270321,110.49990784626752
23.39985631984414,51.37065923272244,-24.224029196340844,-1.8597382276992356,14.136154973433367,31.769899275758426,45.75272061689145,47.31577823206716,39.70306078831236,-54.568510288939216,-34.85717398703965,-0.868194098494957,29.057451010481714,46.79515702417697,34.129330008436995,23.454400646848413,-58.661835372983965,-48.39471009226904,-18.294230387014906,12.36355332834832,37.4702515662077,21.351334513914775,15.729256738498151,5.011314502138191,-45.53410255069812,-54.12568242926108,-39.59938500709874,3.0085929065733605,21.715936420919107,20.14524067983091,4.226764813852821,-7.38362969106746,-16.631251286338614,-54.500485650323995,-54.20424378127534,-19.13978934538492,4.601921369203733,17.159202087094812,1.1978249124589695,-9.627642576044195,-16.319283854300412,-60.544189256229735,-29.30082361180455,1.9664296787826583,0.09900333499700409,-0.8298692569216666,-7.832845186657634,-26.44663644781227,-41.3057168574899,-36.455201881571696,-17.08953024491161,-12.118240815929461,-13.319037434761466,-22.72264399893137,-32.98054297446137,-7.7056755530287795,-4.990842037698311,-8.23584631330894,-34.10469509458494
-60.23226819175144,-25.737372366468822,-113.07112601864725,-93.61798952943104,-61.67690119800022,-51.42162872542554,-38.80921720933876,-38.84323720227044,-38.0424728942786,-126.66303576159713,-124.42404423514547,-77.72436949007903,-51.53234372381865,-30.102209621051237,-32.93461689332578,-45.60523958997743,-117.39475437719727,-112.59963603145806,-81.58256588197983,-47.70414576557998,-25.108120016267264,-34.8961009104943,-36.98596339769964,-36.06842516907478,-104.79937514708607,-102.83940875016421,-97.05130945777384,-53.481960768037595,-22.099764642036035,-24.73844880544066,-40.024320347840344,-37.36027949286528,-25.279689463120825,-102.55455513149002,-96.78768642268923,-61.16119027631642,-31.44817934165949,-19.999438360334175,-36.44338447950364,-36.706186479979436,-30.147410971752247,-86.40863690852763,-54.80488363616186,-27.9259544441983,-23.78222825327456,-32.9965568302206,-44.37379260073703,-42.2342910457032,-55.62748655283298,-23.5655124506334,-19.878660722601822,-25.239997548231532,-38.61121200488065,-55.69842783611567,-69.22706239872488,-12.314329023587808,-41.36865541438365,-54.565402414734045,-103.5904528191301
-83.74796744615713,-63.54661360823029,-96.81231156823375,-89.51635744980584,-79.7414841126134,-67.93070581660689,-55.51571330929776,-61.49755031420963,-51.29218714584793,-78.473473270863,-88.04859372034817,-59.260709456703665,-46.295541153083775,-26.587519306395357,-22.717467566390354,-26.98175090083951,-64.44252998009358,-59.020888638442436,-56.88487014158042,-23.569841797591522,-5.800395801736087,-8.473995081039984,-3.345718806773366,2.471076300475982,-68.47338485246331,-46.911674800792355,-41.20086938252837,-21.16134367650922,8.154798522734094,20.97741776801306,7.197499146084763,16.890281603921277,28.445699256050183,-41.0625719892505,-27.92449705635311,-1.2968558570765438,18.515367095493836,22.75124113636959,17.01191207194703,20.30064508093824,22.86588193187201,-11.557954963776094,16.922286806024275,16.372143798606952,33.51371828601759,28.61103860517337,20.69036408162031,27.845421177682567,16.111128365237498,59.086523721476276,56.68386854613685,44.80209799918623,34.83981520468557,32.25582615524224,14.46865285351238,60.22070182010275,33.11417315963107,2.862291870522604,-19.880331107755943
-45.622198481157575,-43.935416817131305,-35.122447732796836,-36.10864969009225,-43.72662757633681,-36.71196996854276,-32.2580113833271,-42.145752624763475,-36.39211891355404,-13.535217652176874,-17.542185713067198,-15.274340840101694,-13.449116808073944,-17.83540678720321,-11.210082581088637,-10.449846063186648,-23.389986633480675,0.08771864480477376,-7.668717344148266,1.3533166904783371,13.070350392327288,3.27048952484078,7.121178441437884,15.356066147968384,-42.06331509507414,-6.807247088047536,11.062250938517185,11.867259921387891,18.17724835570639,29.443646761285677,24.035539418151824,27.60895652429918,31.551539944415374,-19.84307146375142,13.512667123255472,31.631121441788085,28.420609363743807,22.252253043747682,27.679179960357384,40.214334212641795,28.28844743642978,16.85979679754973,41.131606757454115,29.362171241724244,37.45264444851986,40.31028857579899,39.61335480066022,42.38785389867206,31.635232001233636,52.09639278289403,55.282907562779705,41.5078708160233,39.30434651544581,55.371588783236255,44.069217836654886,53.74638507136893,44.59602230462921,22.191329673248276,22.222936887857127
-8.754272183757722,-27.748992831395086,1.849645965907298,-4.8966234598959595,-3.9206302543163787,-15.601212831495726,-29.901182093529695,-37.94901446586559,-47.03369873020268,13.499530977771084,7.878352176136532,-3.102027886515895,-10.810353920541871,-41.789216075522994,-45.63963592316952,-43.760387612476364,-9.270744197020525,11.673997511628983,6.300519164882797,-9.601099401687105,-15.374775788555091,-31.221647379372182,-36.614982091806624,-27.1639399705962,-24.68065853702514,1.3605044811019802,8.957920404316365,0.5626976897586502,-13.925804643930775,-24.412705071751848,-21.27778047713886,-20.880268273610174,-12.053114291035513,-27.1522156425113,-0.3901238555742079,6.44687368736434,-10.10717361494844,-26.315188725874364,-19.854978978675362,-4.320957724346716,-16.148109707470404,3.8272315859008117,4.145516352688633,-0.9610857268488271,-13.899826083114501,-11.974495762030328,-5.54004931482481,-4.567715070783885,10.929473074178967,2.5445717172750895,-2.8307922014125655,-12.188983458749966,-17.80230878639025,-0.9382610483120857,-2.343255982030618,3.5627040683923177,-0.739581192992306,17.96212891806193,8.027823448054505
6.889772185571564,-15.234003689290747,33.30266487126963,18.189167343680364,16.022383103533386,2.4046440810804626,-14.579730617017521,-19.73370685055054,-31.576610796800736,48.86048253796851,28.266277954727695,14.07113843750846,3.583543303991629,-24.69222542608742,-37.078062848622054,-27.858818010048214,48.38947214125285,35.61526023849488,15.40649582512825,-0.8327935913240889,-14.745933057339549,-19.9856757638115,-23.06411659647653,-19.010475979644305,34.20463292616455,40.34081786011758,21.556882759118665,3.2655122849761735,-9.885687596622304,-21.667376968058125,-18.132970052550878,-12.247433043538937,-3.395086728496125,31.41610688429557,19.295584545611863,5.581302162001231,-4.3990617122807105,-19.343906143906683,-15.723115556874648,-14.4530720573933,-10.743014709619052,27.77540069672635,2.3216704568320825,-6.434013837669481,-12.519383748544342,-17.187113617336507,-12.179900876731109,-8.652099035177065,21.493567497820223,2.3408451829497583,-14.064686526218624,-14.656119170567544,-22.414481120033486,-8.593920430919466,-7.275557295874783,-10.909751870958754,-7.706722492393119,26.765644672927905,15.248937294787686
